Timestamp,FP1,FP2,O1,O2,C3,CZ,FZ,C4
186479.1395461,337.76379751870775,371.9783032660692,-17.219109783458876,94.5427774805928,8.12369135520418,-13.493442639859182,204.41327924371774,-13.518115429681146
186479.2249796,57.49396815848441,118.95573145379717,48.988480550227756,80.91804472412933,31.94585363126589,19.541310726994702,24.137327946039257,4.8363767841376095
186479.2250665,-143.59926581414044,-107.63436284632122,93.86018265950489,75.27541233051838,40.064553872024874,32.81288904344002,-146.69848953599129,13.717806624115152
186479.225099,-260.5688942306246,-278.4055654746947,18.244893796617777,-212.5132298124999,10.60664194383368,7.775104267920767,-292.41313962163065,22.629606400718792
186479.2251322,62.08106800737343,29.234118188733063,-58.67484505464871,-185.5826940564046,-17.406930771054242,-30.216131668433633,-62.522216027089065,-2.3204734384547727
186479.2251699,280.28782091315003,315.47583028157396,-18.30077362205622,112.65108153739905,-5.101792918203747,-17.994244515047818,178.00029977107278,-20.155382899735756
186479.2251919,12.491291214210207,66.78100165849636,50.00266410690744,93.6260778507714,20.439116791105775,10.284580280827015,2.0701569561648903,-2.5739268558962056
186479.2252177,-165.80432579203074,-140.73360023655286,90.87419127172141,89.39824515157625,26.464012500233338,15.757742822304841,-158.91473694474945,4.891317223585737
186479.2252479,-246.8030740944517,-276.0193656308008,15.315186390362406,-210.7766848157812,-1.743278420203982,-11.144860700126543,-277.1976913844131,14.723267705748864
186479.225298,100.6849894833877,66.74932944144496,-58.34854001764086,-174.6364166432805,-25.43101780429971,-44.57868716750963,-23.24744464823177,-11.383678383087167
186479.2254657,314.5295257415419,352.84024687682654,-9.067016562334409,124.49384257802035,-4.884927025512058,-22.27923679861054,217.52813498412303,-25.85655519446447
186479.2255341,16.82316805654667,72.54098687872985,58.13896429033688,102.02201581787185,24.909368852725223,15.162317450738279,16.32916099225476,-7.6257290536151405
186479.2256725,-162.1310964669493,-140.02573055687733,99.45512389180566,93.0183240557651,34.04689363302717,27.951754529470477,-141.6697240057436,1.776916506993108
186479.2257055,-255.93145310277757,-295.6367629431555,17.175535280885235,-210.03773587207976,3.1216988973759943,1.337048919939967,-280.3767910574664,11.329815172535318
186479.2257276,97.66294481570597,54.06518430290763,-56.042492326698834,-176.06183702661437,-24.715596345939336,-35.109612396363644,-18.67193957886513,-10.003268723163778
186479.2257483,331.72976947540303,362.2423436682485,-7.051024358879311,131.252478273006,-7.893583965011521,-22.17516313345824,238.60040095303424,-23.718762974636697
186479.2257686,45.644045778492966,108.6146133746604,57.67082065550315,109.17502070139935,21.106575091903732,5.978935215052189,58.68882215380607,-7.548411448119902
186479.2257967,-157.08218808638497,-122.35857108557775,98.80709327744175,103.33060604506176,26.37731177220804,13.06624879709215,-117.42992497725976,-5.1808395500615685
186479.2258208,-258.5916557642506,-277.3151773465999,21.584981332493683,-197.2432005414059,-3.4726478664381846,-10.944689561540507,-252.17033339338528,4.9085898436663555
186479.225855,72.22115920110096,42.168364588055724,-51.45513726558215,-158.85171558889823,-25.851718222499755,-39.88288458752887,-16.74077016408647,-15.9526614251286
186479.2258725,299.9243174244577,341.45480536859003,-6.382306380384964,136.7230611688825,-6.826103245238908,-19.29944554394484,234.4600010671461,-29.56868847889003
186479.2258911,15.7381763595814,69.55533851421345,57.08041437727766,110.50271986004046,22.77509852526233,15.724835297008173,43.87781924601374,-7.946345386669633
186479.2259082,-167.4638982580416,-147.62251185147986,100.5975075849924,111.69101748626545,35.964457608127084,34.23176402764794,-120.67034354489722,9.165756849291594
186479.2259256,-266.69257677050035,-308.47151051543096,18.834425489425406,-193.96608730121,7.133211258247144,11.129795824248,-258.0335236724459,23.844144701343044
186479.2259421,82.84620435128281,37.03349935046276,-51.92145629063633,-154.79236938011402,-16.332842723552435,-24.346942674824966,-7.436203093557493,0.7301231852344152
186479.24912,288.8631735888772,319.2363349607048,-11.370225443944918,137.73584023592,-4.978643971029722,-15.812003180247899,232.8654150493195,-21.481880474428575
186479.3249817,2.2697631612552227,49.36977999929,47.79713061230957,112.79110195805015,15.740286539051887,7.210643310238604,36.55186778639106,-8.55032805590067
186479.3250201,-190.74484648207707,-176.18899367494032,93.58755772442004,106.43555530005355,20.01209156699591,12.25302802285148,-140.17451635725178,-5.971883505843602
186479.3250382,-285.87779268402005,-328.1224996721953,17.039709636849786,-200.30168934095042,-10.045229617426587,-16.720005707466623,-272.76928374203453,0.277584865019584
186479.3250577,64.74008780954385,12.965785173208534,-53.91420548663794,-154.12702475037355,-32.65157196469839,-48.30059057592954,-19.725548833015935,-20.421894003058636
186479.3250782,285.7316111264447,309.80517056423895,-11.844093935032951,144.5454112509857,-14.896497070013625,-26.562250834813266,230.73305892326982,-30.688750997433182
186479.3250973,1.0782202601318627,43.51945561254785,49.02202157906724,112.51365950607214,16.527176558497704,6.871640039642012,41.15843462861879,-5.917320709209324
186479.3251164,-166.47611658052145,-153.08109106351097,90.7967151457216,106.33836448543732,32.99384851525677,20.410981364338156,-106.41349726331845,7.851419288463919
186479.3251406,-255.1443941940896,-305.8858320878396,7.5225592558191625,-198.1802192852221,4.8234329095219195,-6.6927234721288436,-240.37463217173342,18.521695834811176
186479.3251712,94.92043775681613,29.75146912176372,-64.27330447421225,-149.80268668979608,-21.337852443597686,-43.876777864907886,5.090986212261017,-8.214581149883003
186479.3252218,296.5560814403145,298.3884656630125,-18.625783654641175,143.52370665304068,-8.803747146706442,-32.29745767856976,227.77840079780026,-27.066231234339078
186479.3252565,-3.5778651101899612,13.861324945331074,46.93364895465395,117.83856568258007,16.768272776653642,-3.544986384724889,22.373141809995474,-12.467339159160751
186479.3252837,-188.83684092913583,-200.21749549546874,85.93864602934424,103.4985031139114,18.274881525799636,0.6033053388516958,-145.21966869828145,-11.99454987927055
186479.3253094,-261.29234910228047,-319.9321100691295,1.6295845943659835,-199.5659974769297,-16.346068405619686,-26.807081309311805,-255.4404229263219,-3.9904443208015
186479.3253372,90.64101718416454,33.47607708343336,-66.69141605277132,-148.924979902083,-35.58206965130375,-55.105893339531136,6.871498528817348,-19.516308681644645
186479.3253585,285.5436679220121,310.10582557894764,-14.33280447761262,142.87964051873217,-12.641998598046818,-31.305335780245503,242.8388574894612,-27.409242871497558
186479.3254135,-5.624332998708937,28.554498780755402,51.32032687806891,122.5617306300819,17.130400091492973,2.555770232916492,39.43816327103352,-5.185610977729635
186479.325458,-173.7367462417741,-172.81128616247446,93.26284648380872,116.84836760805851,27.119833698577256,14.011353872339182,-116.94309956849551,3.1545279603098066
186479.3254904,-266.0324621187044,-328.5489438298706,6.057736855189119,-196.17639028066344,-1.5391705560371847,-13.875974783144422,-254.21091196837727,11.009879652879716
186479.3255207,92.7744764984343,20.064406434802606,-68.21812457823087,-142.48516214941347,-24.325284265388063,-47.96625724229679,1.2665637192698824,-15.406330845419102
186479.3255509,291.80703234701747,293.1131520140984,-20.47037315823178,152.68836144829945,-10.798054061024615,-30.880092857123117,227.55677062220542,-32.484065823838364
186479.3255843,4.258891014990901,21.578629527744425,44.37513411571686,120.39649176594918,13.201100650673943,-0.623605267418732,29.54999149392614,-16.321258629292267
186479.3256238,-179.07719355082696,-184.83459908502564,87.84926374393348,114.1162938513416,19.372200745996548,10.101990819836985,-131.53808071873374,-5.849169597446046
186479.325648,-272.72483682836514,-324.32398551430765,9.071019723187547,-192.7370770498427,-12.497661406557926,-14.344987017687423,-251.6024488156389,9.192375537396032
186479.325664,70.62001435403063,19.66248349450575,-61.77198876675011,-132.7610337028105,-38.61443508389876,-46.86816681158217,1.3797082325192989,-13.353266605242858
186479.3402325,269.11741474264124,297.55144623733014,-10.313014839647801,163.3072875885883,-16.87716204403152,-24.013304632855217,232.6914587762302,-22.499939525906075
186479.4585703,-26.270535506576906,20.116061418131164,50.30740125161695,124.6336060440215,13.969852481617067,8.296446012554917,33.34003336050493,-2.4646060473252405
186479.4586635,-188.36225130788873,-171.16279755887348,94.32614813310974,116.15308189207927,26.740424395172283,20.448657975324963,-116.01541417997097,7.332211090824426
186479.4587142,-280.65225975130517,-322.2131259338111,15.658393659025581,-189.7791115886088,0.6368653830665458,-4.237725802582091,-249.7903431684406,18.29189296037959
186479.4587578,86.5720394921366,36.65406415255275,-57.101581736681055,-133.72336297244354,-26.193939962966517,-41.01475042518886,13.006096601819653,-9.415837174603965
186479.4587974,283.8966692333675,299.87365586552176,-8.415041778440763,159.01478884956953,-9.722639628118559,-25.19023938230242,234.8412753822975,-25.016192954527646
186479.4588392,-1.3953522032131787,30.639456637442017,54.02316248702747,127.68246387737594,15.03746978295871,6.1834524526639925,39.75100359289523,-6.492468506540151
186479.4588792,-188.4087942165581,-187.59477764753726,91.69374802678087,119.46695790707707,24.591471896557394,20.743041079896326,-126.30182040105181,6.176574205243668
186479.458921,-277.52641180630445,-328.5969317988506,6.414956562899384,-186.9326883571724,-3.4982455340565686,-1.2275758330840736,-247.59523433204293,21.20557288132691
186479.4589612,94.49304662212515,48.30620549664907,-65.67155395922876,-127.54331048095426,-27.75207517449687,-33.34467827701782,28.795240622086126,-0.8497171232718586
186479.4590061,288.3175711835073,324.3595369093775,-20.15242809178855,157.09453942016856,-10.401200222770097,-18.021304796593455,258.73362932160376,-14.945619743136366
186479.4590662,-11.327822264382803,42.143391215292056,52.997777226927724,123.0344550607456,22.969077732561686,15.541259493017378,53.974607972543495,4.58058930832878
186479.4591111,-193.0536795694246,-181.7725769802998,96.31515400436733,108.5631119156326,32.48587559905932,21.773371039413533,-119.12511668592876,7.757323411116969
186479.4591545,-268.3155100519411,-312.8752956332642,17.999398435095845,-192.58915536674968,9.112779083783428,-2.6224244544034656,-237.28247140568345,18.7343929265067
186479.4591953,90.93946738070063,45.79991658199712,-50.39887735055014,-126.55401522496666,-8.388561042874368,-32.10389926889616,25.158730539848637,-2.4966208835484203
186479.4592422,290.24613117026536,325.3307893761456,-8.878443625261667,159.60983806647755,11.951350649117924,-13.472737734811405,260.4412138027705,-12.841782618764348
186479.4592863,-18.517685652115958,35.709759506288584,50.16177024272689,120.00337517461664,37.47363760793135,16.089849600700152,49.56561655110687,8.278709910865658
186479.4593273,-190.39281405485147,-167.0879038756755,86.63679355145638,105.73340542273912,41.98794226334986,24.414325510233397,-103.36770816471777,16.92514230407593
186479.4593658,-266.01703393622984,-301.4720878451895,1.8303666642282526,-199.28253869076323,11.492639916645508,-3.5820988182308273,-221.80648736619187,26.23592619938251
186479.4594,100.15053405509778,65.04725027120526,-68.57215660452874,-135.39261369140002,-10.434946153399997,-38.79393876033155,50.27376616505686,-1.0869334866347504
186479.4594336,285.30718404753446,327.69324693298364,-20.052775995803326,151.2143909544031,5.933127396890795,-23.250456931226275,272.66396128194816,-20.614229906258714
186479.45947,-24.136936631244552,37.02832571845211,47.91694272785405,116.37171796250043,31.575120091575325,9.189683272882629,56.24029431183929,-1.4607521639744574
186479.4595015,-209.1212525659173,-178.85737246772396,87.27020870510079,100.14711297148071,35.79672050449082,17.666149268721043,-115.72822201657688,7.208864035321378
186479.4595359,-285.9448299687354,-308.9682911585259,10.69955098123193,-198.6723521748497,8.379133423984547,-9.427014829999212,-233.8338528521657,19.269573466111876
186479.4595708,90.03026171854918,65.32583522814133,-61.353707740160104,-126.75330691989637,-12.287442651481793,-45.5309085483065,44.91026075867447,-4.979191298612978
186479.476672,296.08526660884354,341.64566064721765,-12.64358065063632,156.47370919759888,8.879833303193438,-27.172826004096237,281.08093677295057,-17.977479409430735
186479.555374,-8.91876259296799,46.09659161334545,47.07626276402337,118.79842099165188,34.457429381756356,2.196313517119945,64.91061573884565,-2.76932842589531
186479.5554128,-174.69303860528677,-161.09264951666214,76.29607439548568,101.63846667766772,39.384604849761416,8.951015984424181,-93.86102963562868,2.7715984902212796
186479.5554373,-248.61276556677973,-295.3042263704451,-11.783234244627327,-202.2719351320729,7.6769718895286845,-18.406341406846728,-213.78989756386295,12.466519587214883
186479.5554615,119.00652678960535,77.91473637630969,-74.65109828895038,-131.9861154688158,-14.62646119716971,-46.83909452969621,61.91087721623512,-7.326492516293882
186479.5554888,296.3133134800804,328.16680084353976,-19.713594008917013,154.3361284770382,1.2529988452301541,-23.603450012427658,272.4525272640586,-14.267720787222494
186479.5555124,-20.506055059461815,29.227064519249964,46.5261358663566,121.64471261265555,25.3088469588927,7.1538953965870355,55.21051600047116,5.408795415138025
186479.5555367,-189.57192518570608,-172.56458534379613,82.828741713998,101.90008519415477,31.566847483380833,15.638621489077757,-101.64326497552759,13.424093224479847
186479.5555615,-244.92997254491172,-278.4793777062405,-0.2338620464263812,-193.4750349776364,6.202628426757368,-10.7171548491151,-200.92627094362211,21.959484915597596
186479.555587,124.07643525357847,90.39308227831637,-69.34610680120701,-122.91563924388385,-12.246425416213905,-43.76450028721953,67.55475745840923,-4.20229262969125
186479.5556123,316.39697640752007,352.82511026774534,-22.975369649006083,153.05786250474705,9.585038332321016,-24.697195954426054,291.1861486527111,-14.91157203192504
186479.555637,7.823935236514423,55.062601004994306,37.20820959260892,118.03727763911186,35.63952944561785,3.9357099459654137,73.31072649722819,4.146865520220501
186479.5556616,-170.51440125328878,-159.52070344557094,71.42226638111663,94.04109170755734,41.834771827872444,12.52852747905174,-91.23998713229041,14.80824656605104
186479.5556887,-240.24915236492785,-281.1333097988847,-7.965791694721213,-197.83379803889082,11.771465111986203,-11.829818482643546,-200.9738366943112,25.82302802886278
186479.5557137,132.67283669052298,96.20718799279902,-72.17920223221851,-118.00271377787342,-12.49193192275974,-40.91395189969192,78.73868927941956,1.093498158113107
186479.5557392,297.1243286972639,336.63795572825273,-26.936997006474787,157.57002516119036,2.3857549785275083,-19.33518496974005,284.25405613199234,-10.806069776139694
186479.5557749,-6.488255329428819,53.0201322197319,41.80581704765594,129.34973420652244,29.243334893613685,18.1134749111378,75.47160627315114,10.09802544747119
186479.5558,-182.5347565437222,-155.82647886209975,80.58332797808905,100.59862044694736,35.412313278533084,29.351895702804473,-88.11167932225135,20.09882297792517
186479.5558251,-251.70448060211896,-280.5030125607324,-2.947583981555426,-203.89297279893538,9.35396898400018,2.7308863407763884,-202.43831004242418,30.573204364949817
186479.5558499,114.58745986909699,89.95603340251549,-73.76104353365442,-127.70599244357828,-10.727482266681044,-33.85861250230923,68.15479935921458,3.4610003306641097
186479.5558759,287.68268133581876,333.8799987399099,-23.598883894632742,151.6556854327855,11.422073901470249,-16.322663925081986,278.0951662051763,-9.892490653617898
186479.5559006,-23.582991794937577,30.190315707487475,38.77770148455998,115.93819572163093,36.285481677967994,11.956538793831953,55.93924786067769,5.328258120703488
186479.5559255,-194.60290846848133,-176.52790042933046,73.34625337955198,91.18961299168515,39.49076795968547,19.146008609784097,-106.53182541524023,13.783982151980219
186479.5559502,-258.3389656124482,-296.97286162876026,-12.648277240738587,-205.2431634274314,8.174783500145526,-7.061424896827418,-215.8251838646682,24.13994581709035
186479.5559755,110.68391016624463,76.57130388720361,-70.05760442600027,-117.79654444272936,-11.70532401854819,-34.13394436468908,63.6766015082944,5.2700002233166465
186479.5821055,278.7559055624686,316.3738423475768,-19.296729388252082,153.749993647568,3.6461288019030977,-14.311264347031221,265.64819372330686,-5.586960794888238
186479.62548,-16.500516583940325,29.75325848190652,48.453677835175945,125.40089775350538,32.438046721455244,19.47325159668364,52.16578272393593,14.784812136616598
186479.625641,-194.5084480290499,-190.70521640502133,76.52086178885403,93.59826220498539,36.054949866601426,25.948080660817013,-119.43647753831405,19.6132557131687
186479.6258738,-242.2982128288201,-291.81327708708693,-15.82480409604861,-205.68673661073112,4.546114653895529,-3.91668918296039,-217.5858247868467,27.79591677916105
186479.6259358,124.89781515168343,78.4845136295752,-79.3059885844182,-115.73257867937335,-17.083151471178716,-35.55929797526465,60.40947630320684,4.723121193765323
186479.6259734,293.35348132265284,318.30348057705856,-25.36949211505446,149.0337559541079,0.5460278763341471,-17.41839851681459,263.107172904147,-7.2718945707223455
186479.6260117,-0.12259037798736472,35.49627763283564,42.35860024469251,119.51840167988175,24.826549576164986,8.715897138782488,56.328683661373105,8.479454785298561
186479.6260631,-179.2471643439427,-171.6655752664011,78.39224667504354,87.59787757648407,34.5592152068103,15.825125095195336,-104.65206527977169,17.058410435707014
186479.6261072,-249.70082850079532,-290.76725883149635,-11.442578702100429,-213.67008498449437,1.2868238789753583,-17.162561696034004,-214.72104871956918,20.173026095195773
186479.6261488,122.01373495489435,93.75225107177991,-74.42226101301092,-117.77985878315778,-21.43298404014425,-50.05792979328383,67.29854963847876,-10.159831240720477
186479.6261876,272.1200250507526,314.8164975308168,-27.572882243170856,149.80728325182474,-6.914950263197975,-30.32757308587162,255.04456959543114,-26.027754993583425
186479.6263269,-22.497635344317718,21.276215940814566,40.96584175401451,127.97911413953209,19.010352697342736,4.301288432822744,43.33513270640235,-6.0275574818678
186479.6266028,-211.22346613814167,-207.6760008219395,75.10917124685709,90.80243516473787,24.610500159386735,14.633278676757028,-137.13995190840103,6.918721039476405
186479.6266769,-264.45719272979926,-319.1409066788494,-12.949725455411661,-212.70066488124067,-5.837730155499791,-16.5266646510727,-240.36180510606096,15.890780675403654
186479.6267236,121.12972243390584,68.70998301588234,-73.7703199730985,-114.71688905380924,-23.413254817608866,-48.883281390056766,50.42956959745595,-8.854771826516915
186479.6267735,278.3208978715387,300.6347020379334,-28.836932813106515,142.30833790234823,-6.830308530489969,-34.404376300247506,246.0174228852718,-23.51380884415661
186479.6268103,-9.801758176402473,32.26884358421334,36.40250108166453,111.72140965160455,15.860543663729516,-8.562611249539557,46.660256702989784,-10.41177250891631
186479.6269402,-186.22511270243393,-176.89843341916827,69.1904615890235,85.2397787638067,17.250033932356786,-2.5385049584794563,-115.7367060463117,-5.756139590800805
186479.6269699,-245.16972051544974,-289.4420094967073,-16.786669224575167,-216.1223068770649,-15.493010598346164,-29.93848640697309,-218.94514403558273,2.5337758631668743
186479.6270016,134.32729816508288,91.56659446263339,-77.2320457274056,-110.6596424227865,-39.258661315992015,-61.14504499080275,65.61686117601337,-23.500857556725474
186479.6270317,282.7266354440522,308.9589061030559,-21.340489544646978,152.92779405477995,-18.07289212781564,-37.78041045562982,254.5143560313727,-30.401107509967943
186479.6270694,-29.59027820401903,5.569895058821152,47.639551255362534,128.65801742841273,11.206579762837679,-6.461210606177932,28.784894995319593,-8.680515851069305
186479.6270925,-204.52031010103158,-205.68648125963264,78.92946042837457,96.15013522659704,20.39801961359051,-0.19846489997104655,-132.3799719101319,1.2048103744707976
186479.6271132,-253.09393170793476,-312.1655621265981,-14.946678018849394,-216.70368460493498,-10.429619941887324,-31.087172468343432,-235.0864956154295,7.6357245887212635
186479.6271321,148.04404957974842,98.525976415108,-71.99501859800036,-114.48270107303918,-27.844029251435717,-56.24872935724278,71.26114245051704,-14.76375404484736
186479.6441983,297.62728801576435,321.4860722248357,-19.056996232159754,142.33788206093004,-8.092341363237145,-31.333729391155348,263.88621973991087,-22.97137676168587
186479.7248003,-2.271922402935189,35.187797417002514,44.2572265644619,115.83382787478538,17.547104321355572,1.326221966981775,52.616057081524346,-2.793844947773728
186479.7248464,-183.3592059902276,-181.83304500019057,71.63419658718689,84.12537491171841,18.194051840349225,6.0471356690268205,-114.737669745559,6.019514804476827
186479.724873,-229.58959228234596,-283.1841013487928,-14.432837062434952,-219.96329706977656,-14.066799870199684,-24.354144975646307,-213.631874155834,12.95903014457004
186479.7248969,145.6614009283184,103.82316318297809,-72.31033075099141,-107.944077053064,-32.205207516569885,-55.802153601852325,70.93734380712438,-15.285892379359531
186479.7249206,276.9262587806864,309.70073049379533,-16.743116714830155,154.4455400888698,-7.020323602541833,-31.299516028468535,249.7147478144517,-24.009668614186218
186479.7249451,-33.91360964522717,9.940169576026168,45.63880764726532,118.67151815338451,20.3681798387864,-1.9223317936483015,29.27232004662428,-8.260964814242412
186479.7249698,-198.05020198267428,-187.36707965540094,78.06286408307632,84.22248897495915,29.200451571728674,9.266015182535114,-122.75654849989252,2.2424307721792207
186479.7249962,-256.09118214797047,-300.7345042008189,-12.766489726801318,-217.23041112535304,-1.3406324452885965,-16.581999206879615,-226.90239209654615,14.42887741474001
186479.7250199,136.80652113912382,92.65658183123557,-73.75396268977372,-105.82283633052376,-22.34781600928964,-44.369295959043384,65.61787397664186,-8.515534774386275
186479.7250445,260.74555757407256,286.0564982067687,-25.959260590129134,139.90003663048765,-4.738562078731167,-23.15828667472192,232.14589311983502,-17.61949556491048
186479.72507,-30.711856049652802,-1.3848170548840306,34.302349636525804,106.06923218064311,19.41677199498788,5.287020026990828,17.951065813081552,-0.7017752931228167
186479.7250926,-190.9963913954039,-199.3781461614021,59.65625213829709,70.46785575941054,21.694875257377873,8.025067604597545,-138.0232510045969,3.5548829764538827
186479.7251146,-233.03814588839168,-297.03898533935524,-28.123685210296593,-231.98359857093544,-9.067799161026949,-21.678082841223418,-233.6208929706113,13.859444627073056
186479.7251368,148.4878720456805,87.20042237570699,-81.05946683582376,-110.87258555983158,-25.707603294326475,-48.82889900687978,55.846408173332165,-8.94861652275004
186479.72516,282.6552116960045,297.7928017121063,-25.666933161514685,144.06054818649943,-4.6900803165935905,-26.149276298648132,238.71818796661927,-17.043817195850497
186479.7251843,-25.908368327881742,-1.8223293511686691,40.430482409942066,108.57945098867806,23.041556117343394,5.819865387893378,16.73291949957217,1.689052033448292
186479.725211,-180.3063373840399,-194.61439612537396,72.8923037447535,79.45904377009671,31.666327286677916,14.477027839451274,-134.3057333255685,11.57507594954121
186479.7252687,-232.42059121620412,-307.5520535769622,-23.60883810555856,-223.62262940604825,-0.7611359018758392,-14.932870483145948,-242.9182042266819,18.058118945963802
186479.7253613,143.9176808346429,76.03938733054969,-84.0216038941098,-106.71281632772934,-22.55416211665296,-43.22822420605304,44.88430659374741,-9.104718205504785
186479.725416,267.82273858528737,267.28268646031245,-35.65290021825308,141.1853418669237,-4.881671713624208,-21.239497274492592,207.91388440112928,-20.05983067019364
186479.7254447,-19.783795497093948,-16.361089935534025,24.914180634240644,103.11266482414146,17.461864198837088,5.591068657544584,1.6164758536940553,-3.8267039777833762
186479.7254778,-183.46642666447903,-224.94221265481286,52.19666865405834,65.895415994693,19.794950786575466,8.749541206707232,-161.90798418185162,4.595929686006705
186479.7255099,-213.1759128931654,-307.66131123274386,-35.71868878353759,-235.11763824235572,-11.376292975849307,-19.295747521893865,-246.18093748253372,14.14056013059987
186479.7255403,178.51522303194474,90.5082540668012,-85.25875237017253,-108.14238942025429,-31.89111811399058,-46.035404268449184,50.423806671587684,-12.316753998413423
186479.7402333,297.7880162122066,282.2432691490795,-23.49495754979015,147.8971205038632,-9.811224900100276,-20.21954912803784,220.22323376689747,-18.65703145744407
186479.8246,-7.8831017375153465,-20.237739971165496,42.286037294409965,115.18666306254646,15.854679712716766,9.918287544826995,-3.0547931323739945,-0.6470038529408804
186479.8246493,-169.5549301140539,-220.15626240007174,73.60759211830666,80.60769975452166,23.0051817780256,19.48371792718927,-160.71682366284512,9.495895281400236
186479.8246788,-209.30707458905746,-315.35345989208247,-21.018631070788416,-222.25190005678712,-7.836346760497889,-9.34456259559585,-255.56873982746217,18.15221375930273
186479.8247074,179.21581949753684,85.43110034073663,-80.86132991971029,-100.04697449214932,-27.125867780345537,-38.61821169539619,45.710755002619806,-6.672632491371706
186479.8247341,282.19895181356,265.3328760117305,-31.39778740311963,144.27834147983785,-7.030532187020213,-17.175046206169924,205.74216095667015,-15.71680871244497
186479.8247583,-18.829117269860834,-27.114636964587458,30.68470672503514,109.32653503403627,19.31042792199258,12.557796038564899,-7.466361407639898,0.4725300299837363
186479.8247838,-198.78029283993922,-244.81529786203285,59.36288870068131,65.74468976742696,21.314488137174372,18.616787787000547,-177.31712443134208,4.536074257610627
186479.8248126,-236.138129525407,-329.9305695788745,-28.375058710867826,-236.6227402524177,-12.297671910722212,-9.49355162169432,-265.76438450384035,11.667662208435708
186479.8248398,155.750984815824,72.82406787971146,-78.81374874533839,-108.23342585072284,-28.320099961173387,-34.44729400497241,37.380691681040446,-10.693342758256064
186479.8248691,282.15728541464654,271.0685204630551,-23.63978267627067,139.5067032153785,-5.531131406867729,-8.889793986865639,209.71750127994437,-16.453875088453852
186479.8248958,-18.71889476146439,-21.375941734261374,42.42640575906163,107.7200880219474,20.398428034764574,19.828966198974847,-8.746187753416951,0.8264147037418762
186479.8249255,-192.84834819077284,-232.33211630824383,70.35195150609987,63.47758417129094,25.689026748996046,24.65628416754728,-173.80889135679308,11.791469771830855
186479.8249565,-241.90602771100754,-329.22451756868713,-19.35106355025627,-234.7394162521477,-1.6628261524158128,-4.428363615956715,-270.55694475603116,21.02336618179122
186479.8250065,154.86687445137312,77.87109580169061,-73.20307100645233,-97.09800683067526,-15.666920924443602,-30.478649868526965,38.32643265932879,-5.990576803936534
186479.8250953,271.251911479917,269.6027111309317,-23.88726984481784,139.6366637216767,7.270818250016534,-5.343261756705328,204.9741032447933,-16.14593192925237
186479.8251701,-18.42174623456089,-14.9209051324286,38.2938770944455,112.44579813888808,33.664547998863156,29.245302092633725,-2.104183093584119,1.0522624572002126
186479.8252958,-194.1190301878563,-224.69949505883272,64.97025370375485,66.79984208147347,36.02232510404569,38.69355039295779,-167.8464714169947,8.115440718344605
186479.8253644,-228.92304790812335,-311.423828231015,-27.605891008061725,-241.68428670506825,0.4612374443183125,6.971661334896594,-254.07933851254955,14.784461761895866
186479.825393,172.62253103701528,100.791890398378,-72.51750531547971,-104.62136043473937,-18.19415214938291,-21.155766359898546,54.871023772182866,-7.958851779253211
186479.825538,285.35725810086933,274.92312647361143,-15.445686649294686,135.28913865789727,3.4320260508802853,1.1834803054929708,208.79912666299913,-14.687610669326459
186479.8255742,6.3372241361853465,-1.570169873597548,50.238011078434134,116.89866583673394,31.92420475932761,29.97964374049438,3.9883271383330516,4.6519103749639505
186479.8255997,-161.38435664627926,-209.86745884335494,73.14281872053604,70.79699899076535,37.60966013596199,32.869471170774446,-158.5432488111306,14.911039653484352
186479.8256249,-205.4489372754066,-298.04909880656993,-22.934795644860408,-232.66539671121097,4.429661456677454,1.847979345385556,-245.9885958569581,25.14293800714227
186479.8256431,169.6543793314183,106.00395491720076,-77.65006154024562,-96.35003914908845,-15.293247343137999,-26.63542699463831,54.13165686802746,-3.44875895468698
186479.8391084,264.80591008571275,283.1933038313984,-25.86462171956134,138.70977748481346,7.657798591928147,0.6598197720880545,215.08447396220532,-12.303067308349757
186479.9248467,-31.404565427132937,-11.12584801015673,36.44369182851261,112.35130583449161,30.909373975505467,30.698410312646878,-0.602067675503438,1.9041490068361762
186479.9248942,-181.19688817535442,-202.39525209470685,63.86512859566915,59.374705052119225,32.96732849691431,37.65137654794247,-152.20298584434474,12.290170047775803
186479.9249218,-220.87769383869204,-302.30088240127077,-28.772138288226497,-243.0581015738985,-0.3774856580651722,4.6227632202023905,-246.57241507810585,20.770278793410274
186479.92495,174.9798565058319,111.26452092409232,-78.8836997349076,-91.93188567835907,-19.920066520261752,-24.86361982997711,61.39188424902548,-3.620148397498326
186479.9249815,275.4862882988821,290.9965672604175,-25.626304623783756,137.1231442314817,-0.14472173894099427,-4.250714072386895,217.2185167582591,-13.710883254546296
186479.9250098,-15.70608660443665,10.035080411008112,40.57223947491586,114.03730330916343,25.786318732794353,23.360924753473753,11.131245736585466,1.7908075575841682
186479.9250419,-199.63376835460386,-202.02633008652384,65.20693956683499,67.38409174990007,27.369291890355644,27.013161314277905,-154.10466061816896,8.806872735036428
186479.9250715,-258.12396714519616,-312.74103063422086,-28.85802835832416,-242.94362026190498,-2.9357045405163262,-3.122593356699891,-259.25375099983006,20.210274862520883
186479.9250994,135.81824482552017,91.8349447603216,-80.23336961049775,-94.88912034688225,-19.3699994361764,-29.531249899911757,45.644340682906005,-5.1034036108306715
186479.9251304,249.78836594536597,280.5785680463601,-27.173759220973814,133.1355918002554,2.469293591219529,-3.263512353116969,208.98859761915364,-10.000433494456974
186479.9251562,-43.198099058772655,-8.129103716059092,38.20935984053866,113.64694454277678,26.619319797912883,28.09743564002048,-1.1243446370859118,5.836407015079734
186479.9251783,-184.58705119310196,-177.92642124311658,68.618187694575,70.24886175224701,27.362855583945255,37.19540332960784,-133.66874301083237,11.683183626554309
186479.9252016,-229.8993208425495,-274.95257991803885,-23.424819576968982,-232.35358884010293,-8.97066676314617,7.191050338456796,-229.15847702044982,18.59458154319661
186479.9252233,176.36859356529692,146.98056986498088,-77.08951463011358,-75.39775125600681,-31.732327387016078,-24.257121228694146,85.69338841259075,-9.032973009784838
186479.9252473,253.593796820945,294.641183201962,-25.09290115834495,148.0651890539651,-13.124307688226232,-3.334725447194084,219.51806810125487,-18.219400678259333
186479.9252713,-42.6404213062751,1.6107140627941021,38.596120782816406,117.77563738281219,16.47709718275319,24.903133065851883,4.770927703329834,-2.1028919357200824
186479.9252952,-223.4475840223098,-210.78380828472328,66.59055779131639,69.18409160880324,22.80729944311168,29.558625690429615,-160.1709012800352,5.120239073796409
186479.9253191,-270.3057810100344,-316.9658416396625,-25.458953189620857,-248.50457527728184,-9.534906987751485,-0.5850419511928369,-263.9609667608025,13.741915937554019
186479.9253485,135.70960792620838,95.6496553899417,-69.68473291145534,-82.08634080592616,-25.43847867231044,-25.511341662638078,47.929923929580454,-13.981779267853007
186479.9253752,241.35370959577477,274.8665618306749,-15.614098024417764,145.93771029055142,-3.771152081293141,-0.20118890200991757,207.35758839917077,-20.00302115818466
186479.9254022,-29.894274944955157,2.3202073386675934,42.48843024311421,117.05909885353272,17.01720995335378,26.510045472253502,5.220314780355901,-4.544151683865779
186479.9254311,-174.3956803144384,-176.26227817365304,65.56215721095026,78.85567317591008,19.069252957068432,34.67916147644593,-133.73036631762304,6.410911215199502
186479.9254592,-228.27167264531153,-291.2799524209178,-30.184287497095976,-230.57345332742403,-14.173528178134834,8.72286626903856,-243.3204681987804,20.29588031817969
186479.9254849,182.02741516623774,125.24499373568128,-74.29648550468815,-68.62322976551708,-30.10892801711269,-13.429661057964747,70.59128713104454,-3.0954291654162454
186479.941875,260.5689529912412,271.32891333015993,-14.123556437390345,147.90698652885234,-6.497514911984133,12.014947611288225,202.09158607255853,-10.8259820230022
186479.9746394,-36.76234026672036,-27.28405020593839,52.16720837435766,106.75861621767365,20.47725424461511,38.61257072566916,-19.689386786508155,3.719830910666985
186479.9747034,-199.05500905496723,-236.11837718983546,72.90403212938656,58.09233349431443,25.01793350814919,42.57757493088235,-182.25472513568866,11.477846939815986
186479.9747333,-234.39732943261697,-335.5126978061724,-28.79394480951348,-250.57688685157075,-8.677406439815657,10.589052574949044,-281.21434932122526,19.139998527677832
186479.9747611,178.39990165211847,81.07985106971095,-77.17334198215464,-83.68385310957376,-27.86852429123233,-16.7357498010344,30.5866680034775,-7.515439094555761
186479.9747887,267.7972512157619,265.01005920292624,-20.73519429823802,145.51128428822372,-5.148908408050033,11.389078009101702,191.79447311608038,-10.986892149732418
186479.9748145,-2.068632487358453,-9.949438463876753,47.30823415533686,119.21676677069577,25.035178612517363,44.51701784454313,-9.119699687031762,10.626075455788104
186479.9748469,-144.32283899722094,-190.9708890133024,74.24849636541688,69.26284911723594,30.726050369542392,52.565880544531694,-147.82617300382742,21.75138364836843
186479.9748727,-204.6952814741585,-307.5962490371895,-23.44109366644914,-247.72757148966718,-0.4635726502277926,23.656832968387448,-260.93293845129506,32.76033711349375
186479.9749028,186.91149162158715,103.74109892745369,-68.82169048559443,-78.44371232604544,-16.35652794605643,-3.169064295769152,45.8072154805476,7.093358979317241
186479.9749335,259.86423703813347,248.4597860913069,-19.180897027990643,141.99989699296785,4.206009626989733,17.830454929850383,177.39115952112132,-1.358283185693594
186479.974964,-20.349866697576594,-31.677983971969553,44.39578054799793,104.36360427439007,28.259460739204187,42.603065557880484,-32.231763844456935,9.87190332523549
186479.9749949,-167.20490246637343,-216.85945137192888,68.89658242767881,58.29023589365171,31.206086905320042,45.511440189515326,-178.17137080408565,11.111984856607322
186479.9750244,-197.19952193624744,-300.8787314424516,-25.945330261159288,-249.17523074349492,-2.4913177180879273,14.945756335706433,-260.2207182873783,17.841409408109442
186479.9750535,203.1886982946588,112.76859663924898,-68.9865061354753,-81.74319202627744,-18.41817663710075,-10.908524562040668,47.20395775484225,-9.159806999452996
186479.9750796,286.55938953649036,262.4370468309035,-10.326989817041781,143.30855431947018,6.997500599365286,18.9909050921138,189.21116682037268,-9.96947771511476
186479.975106,-15.765094681867211,-30.215435633225276,52.17616714207554,114.49714631566219,32.87220859852329,48.565430507808074,-32.03357935740107,10.842427672415582
186479.9751339,-164.96198092978335,-218.08800935746652,75.9181248309064,66.45318924357277,35.74936660595592,53.815554318646534,-176.03213307372394,23.453193678957046
186479.9751674,-213.53926982462215,-319.1956735146902,-22.161067418985873,-248.28166394381412,-0.05798128613958653,19.41098261448277,-274.8630067130817,31.47702968067824
186479.9751908,196.32989686076192,110.56820922979207,-64.32531050543582,-78.24316945181168,-16.712844619119398,-8.946614598075726,48.15694928257861,2.3611494808562767
186479.9752146,271.0804421006096,249.4240183320685,-3.90941780310699,143.30748810470715,4.993102655070853,14.542555959893019,179.86509851596946,-5.616578277236844
186479.9752466,-16.127780805496727,-34.03589237645684,58.45542575079632,110.53087537116713,27.543044205991098,39.553847580450196,-33.11683539304441,6.687416162070734
186479.975273,-178.5064960404507,-231.898863990521,77.22587985505109,57.594553339545186,26.29964435958667,42.91521450767284,-190.23999789595297,10.963946616998522
186479.9752973,-215.47114039927473,-322.1047169628355,-25.112452265732024,-249.86357825279873,-10.140794540727308,11.732074380991545,-282.00162931082923,17.80954244074812
186479.9753219,191.80609879440405,107.24679188156355,-72.49989776581769,-79.77314301628967,-23.50642779954404,-12.30156623003212,43.4470176225627,-7.615541006863326
186479.9922024,276.53964140988296,253.60737367834852,-16.59023520350418,138.8671326619733,-2.310536133711104,10.805847380217203,188.83312428489376,-11.528337777480928
186480.0748354,-25.058984609337543,-16.75747151518727,50.840921163984405,106.50051013026281,25.150302908619466,40.084924120888886,-22.459734200072,7.526605071851405
186480.0751025,-184.52773031263155,-211.10742340681028,72.50735601254625,49.1592850345539,26.041564027977586,42.01704106478185,-170.74936812702106,14.305816372739073
186480.0751605,-218.79687709167638,-298.0627623622852,-22.04044269253754,-255.1415870931486,-7.042787158938786,8.484286301807668,-259.0640887016598,19.309215329393375
186480.0752008,182.8293308411782,119.67377458907953,-66.08196212154705,-73.59433042457256,-26.8498461660265,-22.28524339782442,56.637739339924806,-15.054563264439615
186480.0752387,270.80941385424995,282.49914417463,-7.005991972672072,150.1851901043826,-7.445946075794019,0.6777643129824433,205.29684375093802,-25.281087708625517
186480.0752697,-13.61951616864335,5.501024992927906,51.664231765690054,121.28916997652645,13.887909333445084,23.88266636725589,3.0517238564412654,-14.052634575457452
186480.0753042,-143.0087348410125,-161.96033417492885,71.49246850289268,66.06661839066223,16.63941478366731,30.866359192360235,-126.30317877958831,-2.4969772485727724
186480.0753372,-203.58825863401452,-255.16473267104675,-26.96305657195579,-233.85903104058937,-16.184930929312983,1.9361980877481901,-216.9330676008982,8.761964519541962
186480.075371,187.5479421195261,154.28052729816267,-71.58290741827066,-73.73448894454707,-30.36820871110067,-20.64336553341566,92.21157603823443,-14.991184803149103
186480.0754506,242.36047530158567,274.4749186493895,-14.299275691407999,140.68724621049802,-5.091437227135172,8.46827891736847,208.30411593135017,-16.284667697380215
186480.0755616,-44.98419191493362,-12.29587749264035,49.00284875840596,108.5606651250813,20.247993707458804,37.747100642510816,-0.78156797766297,-0.13512102971068218
186480.0755936,-201.10200605687527,-202.83287845369645,67.27358027250942,53.795789260917196,20.791842989416633,41.43374664088273,-149.37698884790422,7.286688281038778
186480.0756208,-215.8128094714699,-273.6872655593439,-28.960069638779224,-237.55832678248038,-12.042852066015243,10.090557060014119,-232.35378822211007,16.4020864617503
186480.0756498,181.47943426555932,131.3144328890763,-71.626349725796,-62.17961453086545,-28.206175241455274,-17.76558614101993,81.27173278106144,-10.633735848503768
186480.075676,232.47653077832317,263.82979852773013,-13.694716114588147,149.6803374174253,-6.318623777953498,7.688628532770167,204.44376668793353,-13.411045360598052
186480.0757023,-49.58332948991486,-34.67089350436667,47.305398798161136,119.85770471629787,14.850949464071679,30.77127749851109,-18.987191328635788,-0.6468001268130337
186480.0757278,-194.2805744333382,-218.08868356714498,65.05050901934918,53.31126749632446,13.271608210099775,33.74387576160102,-160.16102857272907,6.844444766771888
186480.0757519,-217.03999195949737,-293.1223664834359,-36.36411950278929,-251.3241368230185,-22.530704847451783,0.8232386537530125,-241.96310074895354,13.366801260001541
186480.0757761,204.96047314383222,146.4604815715661,-80.99276759347659,-75.94840514399134,-36.63978725473059,-23.350546367840884,91.46028537614197,-13.563983563228263
186480.0757996,256.84887552591823,279.028874197918,-27.362120034106447,135.79890452636843,-12.496335932779191,1.1319430821137377,225.20204278224935,-19.508285417513292
186480.0758275,-19.890712314942,1.6795249397980285,37.06660125531476,106.54639096291673,15.328194167041362,28.257641515363336,9.248878130588864,-3.4996953167855622
186480.0758535,-191.4182156220097,-207.941096111022,55.81939684317794,39.99596897441637,14.550283802622772,29.69638029786034,-155.2491670924165,3.239228479019779
186480.0758777,-223.8443251457598,-296.8111832371835,-39.416434226676344,-252.43431890606936,-18.118860993049232,-1.6734663664392286,-243.5515765477559,12.20341885777651
186480.0759026,168.82907156646462,106.48797248921983,-80.76547330109263,-73.49794708343093,-33.42678581903671,-27.353948799415882,60.51045836584393,-17.500928789674575
186480.0928753,237.57494570660742,242.74633925990128,-27.491241959808676,131.68326539559916,-10.681351976623102,-2.0177137529958866,184.95595543932728,-23.174814413740762
186480.2592712,-23.48411735673657,-21.642808953882597,31.422876152276366,104.53157442572672,10.940666645164749,19.996322431898687,-12.050095680597444,-10.386851633188165
186480.2593061,-167.94851383769895,-197.97807685145895,52.53527335082222,42.190494630624784,10.02257227429787,23.430421430514375,-149.12630333658205,-1.423295380855727
186480.2593292,-185.75855918202794,-278.13601439207764,-41.9854908583,-250.44425859825347,-24.752879656272,-8.159802228546384,-234.06533072117878,5.99358719388011
186480.2593558,224.863784958169,150.44345081420983,-79.97262700321961,-71.93938597753807,-37.48240672201648,-31.25982784160268,91.05942784150933,-21.17957638839289
186480.2593814,265.73393785068464,267.8031694190523,-21.324886334794055,130.0060852798868,-11.76140506547851,-3.6772767429189894,203.92166824652503,-22.154152317664405
186480.2594071,-2.5165149536668707,-7.493030655687674,43.32277739681311,98.96252622748305,16.60106277172889,24.29509479004458,-1.0959891502698795,-6.42305388849252
186480.2594321,-166.7769993270055,-206.54338902413474,56.675602026043435,31.386340559936826,15.607783476172973,24.88665914686024,-156.00568488408135,0.02723410344643007
186480.2594548,-181.70270696328276,-275.44396299129,-42.45870371552597,-255.27157113118398,-19.856165124216123,-7.344556075345843,-234.48755411285597,5.830078536231433
186480.2594862,210.16208888239143,140.10694254665628,-78.9697968129091,-64.40666208480934,-33.2996193905054,-28.82454643415918,82.88530957230415,-21.25936852063895
186480.259513,259.99659495754815,254.68203113912435,-13.982820881246425,142.628879631027,-6.5488297952128605,1.0746389852983107,195.86592480792382,-19.239014519671986
186480.2595365,-12.3566828342952,-23.905101912506332,48.16591385943585,115.08960792483413,16.37496489986637,22.983369050166534,-14.56808103208368,-4.747599174271745
186480.2595628,-152.39277677890303,-209.4823056732288,62.73842672413981,41.94529105197584,12.437070819884255,22.888616655415106,-159.00457176468703,3.257973761332007
186480.2595879,-158.63080012037776,-278.60672234353285,-33.20463705277777,-249.57085850694114,-23.829606685663236,-10.508675941126679,-236.54497856601972,9.694390684544093
186480.2596115,255.67988534165022,164.24069894208836,-66.82680535340975,-57.06823352887517,-34.6971659023963,-29.492857560754302,99.60584023696086,-12.753452342911618
186480.2596366,282.79854895860933,267.0561937992969,-11.323070726842568,144.97916870581253,-7.180560482603118,-0.1780144205439953,213.10354704363488,-12.683445190938942
186480.2596613,22.436016508342757,10.172641741999989,53.802151944147695,120.45477833936192,21.105210845271763,28.677554662424942,12.785565599685661,3.992324669178025
186480.2596826,-153.57349180483794,-197.63273299080666,64.92353448427404,49.90397304588758,22.07208334859048,31.495430424220952,-148.08187639776725,11.122472450803915
186480.2597064,-179.2854653504371,-280.10003229612266,-35.68142470645639,-243.16667501268398,-14.213831936181862,-3.834081610967573,-233.15196365566626,16.211068086290044
186480.2597313,212.89724767770076,141.34094230727845,-72.98749963627044,-49.29797844202879,-29.780531437919908,-30.46453173609779,88.10159875505474,-12.125174785804075
186480.2597534,258.86855121544363,255.31810781650512,-10.997357627403193,141.49407918090654,-4.491034935886159,-2.90472930127902,196.3349513985479,-12.7511543233304
186480.2597799,-16.486935577416688,-26.842788205463194,54.12259802378661,120.1777967179083,19.550541593252444,24.278832829579336,-14.160735800753507,3.032185868254442
186480.2598039,-161.11527493699,-212.54572090556022,70.53939607650466,47.45314212107294,19.512572378140735,29.612000804673652,-161.597761260846,13.592299407882216
186480.2598271,-179.65316001780212,-276.4176325109082,-24.71106719680285,-237.18546944982864,-14.177124345102172,-0.4869780263633352,-232.28621252299075,21.59574549238595
186480.2598491,233.19119135076846,155.32054961324482,-59.50906300639885,-38.17722899437656,-25.68629326461822,-21.620811163163957,95.42095612579394,-5.541758767418942
186480.2838748,243.07092546746392,239.39914982166033,-4.440013815412065,150.55034881771846,-2.753179553909865,5.545992633611721,186.71957318597174,-10.79145009206138
186480.324562,-13.294786748932125,-14.192967639012387,56.44992321725585,129.94880809215906,18.975719573023397,29.263653794272997,-6.7186610249685685,0.34905436724478545
186480.3246206,-181.32860423397963,-215.3928373446628,65.86169589840884,52.120336930207756,17.807050654186966,29.657228606252083,-163.95606353376644,8.069829347039299
186480.3246557,-190.0384695224467,-275.3996328221174,-36.27941727682783,-242.9218256632542,-17.685426922931434,-4.599420501022749,-233.58219323752945,13.864193728881414
186480.3246951,213.01312909064114,163.4933042787624,-76.88292635263691,-48.08036295431316,-34.35393930231846,-29.325704973862543,102.69938510312247,-15.120921543581801
186480.3247427,223.10235495070017,247.96445865992132,-16.44886414190654,136.22553452192528,-9.779086814684215,0.477134875375699,190.21934641131378,-13.731314821161618
186480.3247681,-66.47397350979993,-40.00093707294556,56.100565832561784,117.66662116201202,19.199570154855017,34.03991612980499,-27.136231761847498,6.7279058593258405
186480.324805,-233.43825044580865,-248.54671740932284,64.45826291644094,39.63702886806149,16.79194557074007,33.69851926268454,-188.62442527559966,11.816935536357969
186480.3248416,-215.71656165149614,-284.4106952702838,-41.322600375531906,-252.77069809539404,-20.6781752595725,-5.75423624488643,-242.20410110330283,11.807259544528478
186480.3248723,205.8943090885712,160.1888125418965,-81.71736020497939,-48.90278960158954,-36.8050730210483,-34.240464849399736,99.52582101841757,-20.984747517915277
186480.3249038,225.0617757156248,261.8698110176699,-18.163905636433363,142.74370502340685,-7.1883682689186745,1.3686080756000862,199.55848955376183,-18.302666929049202
186480.3249412,-55.865705457616016,-24.524074868039293,43.62510008567226,120.9271987087327,18.040818671154156,29.315701639649813,-14.875526222447789,-3.878367755718066
186480.3249761,-210.53813595930293,-210.97677582446994,54.16055620279924,34.399020494330244,14.48055280746076,31.481038098612565,-162.73010850387806,4.404028913172112
186480.3250108,-206.061325801392,-265.5826562579198,-43.76576644379331,-251.86111375167195,-19.138327815182237,-0.34445883203204186,-221.92973453818163,10.84980056082589
186480.3250478,208.58312748450163,182.12016571145466,-76.07806154540089,-44.471330379128545,-26.29378251009286,-19.946937410540436,119.73451448774065,-13.713919393577367
186480.3250874,208.58673020599488,245.23990396845363,-20.83652733180341,131.65375903493802,-0.8254121693933438,5.945210845491035,193.67861416757765,-13.831910808628662
186480.3251248,-66.24787535268148,-35.967782900918905,41.85106327309475,105.50522061695743,26.080989875430294,32.47312657665581,-23.27650326049269,3.6350347567946706
186480.325154,-220.1185794257327,-234.0483320596448,49.0646142547494,21.774006278720982,21.36948684833949,32.515169063306246,-179.42823248854296,12.714110613422584
186480.3251879,-187.98487476572723,-272.41011388817645,-52.10987627961823,-265.15155058210354,-17.006896363004724,-2.4555207361517652,-232.1422922129861,13.720802603679584
186480.3252226,216.73109914194467,169.11841722579092,-85.69937545652273,-49.65016504339754,-32.45658264551393,-25.95443980005932,105.9684888091584,-22.07195285109683
186480.3252517,236.11980438330036,261.1505931800989,-22.759727317931123,132.4275154571999,-6.159745503602738,4.685698001887424,197.4343859792334,-24.151157274773098
186480.3252782,-33.84665344642186,-18.739849062958204,43.01755033820068,112.68461275447306,22.16785557033964,32.76958744355076,-11.382678885589264,-6.047741128091288
186480.325307,-190.39378720583838,-214.7784616756947,56.30421123750175,29.222834491735476,27.187893866011457,39.44816302621376,-165.99934818359776,10.754255657460062
186480.3253345,-179.6928176487462,-262.28896395433003,-48.506744870547514,-258.50963720363586,-4.88446805153098,5.538684338004185,-223.66004748708963,17.94162021545351
186480.3253627,244.28205084556168,190.98561347636857,-80.3405161648435,-41.41318304730896,-18.376951043784686,-16.885356865952666,125.71757368445202,-9.369780530206832
186480.3393671,231.07252351980063,250.84108228798516,-20.754221780732934,132.9781497758471,2.5964421998218885,9.272517901619894,191.81186430353196,-9.878448317888047
186480.4079736,-65.97189057880439,-59.237197670368026,43.82903581203003,112.2826651436315,24.45649033173078,33.18761388179678,-37.60294225121554,4.239362575979898
186480.4080261,-226.38119172551623,-264.96474491074514,50.28132645452283,22.24623870744982,19.12418771244102,29.796026108132345,-204.6609334878171,9.529210371555841
186480.4080636,-193.72081568626356,-287.7029164401146,-50.85473972298715,-262.16296663751325,-15.554286407940396,-5.39346137246474,-247.33702874880132,14.18719787580698
186480.4080975,237.16828973036104,169.64900394379586,-81.93653356017786,-45.01841829911535,-29.88317793067384,-28.017158546774965,103.54236940225502,-16.925638528487386
186480.4081296,245.27778276103936,264.6633834050002,-17.937728380624286,129.11681496397173,-2.153527740634011,4.767833489576072,199.3345538661689,-13.147311719387655
186480.4081593,-16.744206551008617,-12.548953963379233,47.76351272659402,111.70547324234184,22.544774555912905,31.91234597685658,-7.16487607120375,1.4626280610505478
186480.4081988,-165.6980685406526,-190.6269668295486,59.93118300940144,27.745285988584783,19.89648619756507,33.6344175911394,-148.94912658197103,11.705896982220791
186480.4082276,-145.61394082809335,-228.52058928037334,-41.605298083289775,-256.6261092021609,-18.509470644839606,-3.9032917249233448,-196.89579094970958,11.759625360304696
186480.4082763,254.36607466181,214.38895628542076,-73.75302564650502,-35.07896988480124,-31.913047008727094,-27.70846862060592,140.74487262270202,-18.463926789721313
186480.4083192,232.98422768653177,259.69623861108676,-13.856984780459491,131.59261754406432,-6.902684863665051,-0.35650815032120775,195.6315674292133,-14.634519344305637
186480.4083612,-57.654452862041836,-30.714171114521342,49.96025186589878,109.3203664926151,18.68786058887638,25.719956669975414,-21.51832151448292,3.2995984173822066
186480.4083886,-206.15468305243522,-222.4464620135085,62.76920394039827,26.599598911446712,16.847345170337324,29.49487308424575,-173.2593485749508,15.158181379420721
186480.4084147,-159.97892023842843,-229.3018126933756,-33.08037912711784,-254.64067655335487,-16.687182199347234,-1.0229258811873407,-204.3819222566767,18.66350400136331
186480.4084406,250.5262984312776,219.14796897222962,-68.39363760833776,-31.050184384203124,-27.54774471349193,-21.684983241872203,144.92547561436413,-14.557258037431694
186480.4084739,241.52690808677622,289.11899702241044,-12.622501526076954,137.142667558588,-5.824639394124552,4.236263301502232,219.27663037723906,-17.41144684522519
186480.408504,-39.075081670951434,-1.752919814341297,50.283377488682405,115.21444566381132,14.547787921227755,26.727907549164385,-1.003460852547029,-6.9106675111896045
186480.4085283,-184.84883424783047,-189.68424004735994,60.31525667978785,29.145404369794456,12.579050713617608,27.90235652875201,-148.11365633799986,3.7717472011481803
186480.4085542,-163.31477688170935,-224.05027071139412,-38.40552036398434,-254.7872008937042,-22.204169183988782,-6.145416244700918,-195.29895306266877,7.167494441340715
186480.4085808,242.3381597626494,218.46037428663848,-59.76223872061715,-26.693748272769184,-25.234157874454727,-19.05410468208076,149.62930018581952,-12.855072731307832
186480.4086069,211.94079696268358,259.1614911652433,-1.9928876912219344,140.52081001838116,-0.6277901367545624,10.905927537425839,203.91724871969944,-7.546829322778034
186480.4086338,-65.14203644230462,-24.997204018446382,60.710822364093744,118.47650928189735,23.55139890271615,37.46403407468449,-12.062369466827334,10.854738286454218
186480.4086587,-210.51020982092416,-215.8258651404219,67.75631698340251,26.299594401131095,19.31653802016263,37.40190406389655,-162.88701875531927,20.273598543026036
186480.4086852,-152.71206127796572,-217.16089335525945,-36.28649705089354,-262.87442659223024,-18.093675202598945,0.26004424418129446,-184.61931522549008,18.91523334505357
186480.4087095,269.9176208181576,234.67534753263482,-71.03790181544514,-37.85114832625071,-30.648270509803318,-20.74782273623954,160.91352843001192,-13.244949160472022
186480.4249943,252.0713361413338,290.31543204274016,-4.236133807562171,136.34022673620515,-2.0872802540433675,13.680918345074321,227.89598869502953,-8.900453272871014
186480.5080912,-24.121186193652925,-1.062935997635762,58.16759017124782,117.72219268503687,19.4601893452881,36.463440739799665,8.60682447734132,2.299345129965438
186480.5081463,-176.10029163672317,-187.84918863772228,62.71859859793554,26.53994710727366,17.495034407265045,36.8418814618249,-139.12960859548843,12.147647651498652
186480.5081747,-134.18803232956685,-213.0847864381728,-39.05957540633357,-254.96949421868936,-15.144055172738454,0.09961331113872696,-182.20902540410358,18.027801984419618
186480.508222,257.6212708605974,232.89885400499458,-64.56413521305859,-28.136038275113837,-23.32989631584672,-19.5444043518238,162.61763255164223,-5.397121274408568
186480.5082517,223.9393099703667,255.94816523036025,-2.422753605289115,129.95417399483608,2.2735528888336303,10.974635264209947,202.43267950044364,-1.517205951480058
186480.5083096,-56.92607722537125,-32.36824313367047,62.101232870385296,115.71201720636356,27.12287223154818,38.137981646966466,-15.366231303706737,15.662709718352584
186480.5083733,-210.526380408714,-237.22584729225053,68.23835383859354,21.123927842219544,23.934847988310054,39.95036129134087,-178.7845882955909,26.667358784480374
186480.5084178,-156.17416807841852,-241.21743147535196,-34.128087177221765,-253.5014450309625,-12.486205917565197,3.746716043741608,-201.63628730818687,25.848236410477547
186480.5084632,271.9629374109078,221.43487454810713,-63.45971798401777,-25.21789129742987,-25.12016523509098,-16.9356242245072,152.77814914791088,-6.5243770918360084
186480.5086596,251.01929303476203,261.5531822664269,-7.252905572718703,134.8872309694986,-4.113480067024569,10.147405554895524,207.01121527580307,-8.99843571098031
186480.5087299,-33.34844601991617,-27.094618405621056,54.40687340582273,109.36160469707484,20.050496984239167,34.50360233195246,-11.51776924761175,2.62888286807301
186480.5087821,-192.15835193251226,-223.47188825913432,59.351576892788444,16.392146772718533,17.00704692813705,32.10846418872232,-167.7179289765468,10.00864592007087
186480.5088132,-144.49501660376143,-228.0916600022118,-39.24709045677395,-252.87647259973573,-17.962657436253696,-5.255538057316549,-192.8227065328223,12.737663164208875
186480.5088441,251.42240657264347,216.5847468285022,-60.77334114475316,-17.73582240694795,-27.843051650152134,-27.88425502044047,149.04226939060808,-15.910353489397458
186480.5088749,231.3382571096552,265.6438664638492,1.6582659809312155,138.97969727513404,-4.468050173347045,-0.6243376926747537,208.96928812127788,-12.899354965489447
186480.5089037,-53.360659573330764,-22.162039637430365,66.82162951006529,123.86965042158985,18.4067715686871,25.63097855811677,-7.850563337358226,3.492525751067596
186480.5089441,-193.91838181292482,-201.56471457335934,66.38314009641866,17.661963152680965,11.083491716340307,22.821426181308617,-151.43914240098363,11.47363656802011
186480.5089845,-157.08984128084273,-209.68360075422814,-42.11544263652735,-266.10814149292776,-26.916834442119878,-16.030582643041434,-180.9289184862782,8.057606176107543
186480.509017,280.86366411936365,260.2536319150329,-66.84165560929661,-22.845891757074867,-33.53090844474785,-34.81931010184838,183.61313326431303,-24.68308289135574
186480.5090485,239.88092958125236,289.3119001088743,-8.64392859508116,130.91817411750336,-7.886705246299157,-6.52054109642885,230.0781440575786,-25.3300731811826
186480.5090828,-52.028652160182475,-3.540475813945072,55.11686327579415,115.77242348432776,16.37343934504968,18.26506388791126,5.805652581117915,-10.64011976926784
186480.5091117,-219.01220857636824,-211.69443815941594,55.53969301547589,10.990262701226115,9.531617290501927,13.075874828186416,-157.15284090857014,-2.549995956668413
186480.5091431,-162.353516409585,-197.35615053856674,-45.99842080551013,-261.70545173034884,-26.267492156762295,-25.008894546066713,-170.12488920942766,0.10656062028921376
186480.5091732,243.02865986527166,251.2906079549461,-67.13812519341776,-17.310351264921152,-31.63538184643329,-41.930243457162206,177.32015045924484,-26.008240841814924
186480.5199855,193.8142763545806,274.4800996963317,-4.755829759259507,136.2598237689928,-4.798547620076075,-10.126048250445102,217.32955521448437,-20.16882440775308
186480.608062,-103.64301373138736,-31.66423299808649,60.89099683136256,117.36210656079432,18.053794263773103,14.881646531170322,-11.127359869023671,-5.225791050752315
186480.6081142,-235.39329988947867,-201.24051392104613,60.06183633749221,12.132423076352126,11.585638702809185,12.529795529950587,-153.2915339191703,2.422030620421901
186480.6081373,-176.96931159331706,-193.77404123028936,-49.364848274304244,-270.1531183139176,-24.951002644338704,-25.63503043645491,-170.5918689988616,1.8669711356428351
186480.6081616,231.14281514823347,256.36997550734276,-72.88460202144924,-29.86101918195334,-30.731559353849843,-42.44135545157756,181.35464003727893,-27.609620552038763
186480.6081931,179.42273752236497,271.83982639572497,-13.507864699769897,117.56453296907327,-4.106506044194301,-12.291509533402172,213.91593945128642,-24.75604846884857
186480.6082271,-104.74021619919941,-28.183007343649408,52.42337832807678,104.15495430806335,20.737352740568987,14.44860625529985,-12.37112947882104,-7.69408211790331
186480.6082621,-250.21672799444246,-217.79519873759148,53.48432029496314,8.735672911842975,14.339869950671218,12.980485206064031,-161.15305296310325,3.152594471948955
186480.6082978,-185.21450068815528,-197.53692239110205,-51.0567986775346,-262.0352031876785,-21.296007663899836,-25.581995789769834,-172.4953787848227,4.921170962818852
186480.6083354,233.19650739722533,265.49822132695334,-69.78204910544278,-8.989187331047187,-27.297559599638678,-43.15721327763882,185.5496379072407,-22.845177223197002
186480.6083727,183.6497205851847,285.2547235525545,-0.7567882987635945,142.06055598884197,2.7937987410977563,-6.832504542518244,221.89361635795623,-14.35310197194273
186480.6083988,-115.84417069507396,-20.207264094210757,63.343443678736634,119.7938316288698,25.11690967642513,18.742560895604413,-8.819448263508107,1.2537335905502012
186480.6084258,-269.090883659672,-221.59784962980035,65.1371591076277,15.009571757280597,21.512954459040742,20.007176239179202,-172.2627076290167,10.704745031003549
186480.6084487,-211.61465165277946,-221.46031590841577,-45.94772744833233,-269.5887795996544,-17.330786668688397,-19.34238081679977,-198.7788669505122,9.384883260239306
186480.6084666,215.62050753275395,228.54204781457662,-70.4464991541769,-22.180077375258367,-23.332892315642532,-35.03500311430194,159.04347605222685,-18.28222878772383
186480.6084922,176.48387935029783,252.36459001980347,-4.854478326615873,129.08209449554408,3.860497500681203,-1.6900378668451008,198.0577847776906,-13.635477691442944
186480.6085238,-87.39379455919907,-26.755735353261286,63.118768963953535,113.66112397213729,26.394025843889658,24.067842829316024,-11.037240040985672,1.7911825742004321
186480.6085471,-227.94397123527895,-209.6628820561888,67.20846632588146,15.608910567261034,18.94938288151136,22.20963583707608,-161.37613859540636,9.522087483169832
186480.6085721,-181.68281314814186,-207.37103133473025,-36.48575732294843,-257.99921215048965,-14.784065625824446,-11.014420380412034,-181.36932766628607,15.857444597697137
186480.6086032,232.51642005948923,244.78176167095302,-62.02132956534045,-7.543701909460266,-20.84893497535716,-28.4990505869865,168.13833207883607,-9.82059873858022
186480.6086397,183.23975098718617,261.8489262065134,3.7732441606613385,139.0441476409767,8.23304229255733,3.8765824077042197,202.20320826829078,-0.3135954159782628
186480.6086772,-117.30834299752749,-53.10782938187529,66.70161537595271,111.34787145995641,30.774612915955654,30.090000023241092,-33.89927352917398,17.377993659294958
186480.6087142,-346.8109046392202,-342.73523176230555,42.04323901330343,-31.067319537054303,13.751923368504588,27.900842835877214,-268.1718709734266,31.673875079489136
186480.608751,-266.8495857658397,-336.6067794920907,-70.45714813059442,-291.6288136788556,-24.33617448521231,-17.043252572876177,-285.0456144680734,22.683449663190665
186480.6087792,290.2539046782821,263.2537755814971,-66.91450220724441,-8.701332368237075,-24.916199118157095,-37.83271475546223,171.95713901676967,-25.108579680560833
186480.62146,209.1413771579235,277.79374331635745,1.292828435665811,137.39566961167876,-1.490806394566759,-9.388258326751577,221.33477260229296,-24.31317257513272
186480.7266853,-92.33929495082299,-55.254166313461496,59.39815140957912,99.19206503198106,19.360592432244143,21.243632356036105,-40.969438072064236,2.3468019662211077
186480.7268636,-260.2516173058565,-271.1678977688788,52.50670896958428,-12.372872511873382,14.94979143508081,20.7421044660225,-217.6181377067951,17.256711275751208
186480.7269935,-177.71179873957033,-238.14017858855345,-48.12152927893365,-266.46452431652415,-13.875628141663604,-15.441411248358486,-216.09780082099712,19.39870911020244
186480.7271306,225.74563361579538,211.17878052076102,-68.40350162942937,-16.34368252314465,-18.83843791693765,-33.82528235591201,129.74626057248526,-8.97359873256821
186480.727251,194.6165012724552,223.57643465674113,-9.75531018352578,121.46093434591769,1.6976181786983346,-8.00150006795749,164.7304702897088,-5.102007206837232
186480.7273751,-82.8710056962428,-45.0017089223949,56.41496323078012,105.85795716038436,19.950465747582783,10.509992962977211,-42.35334566997685,4.1681399684839135
186480.7275423,-210.7900904351829,-210.83833840048536,72.28045219224322,3.0195820552115507,16.343383951838057,7.623292894895357,-171.62275878492386,9.200220786276244
186480.7276534,-142.16909749017475,-196.79996592001393,-39.24956724874299,-261.37531172687477,-23.575089129316595,-28.12689089300318,-182.7594481673238,4.450532422907745
186480.7277489,239.47607181442072,234.21864015302822,-59.39252586813698,-12.60416264482771,-26.864155463488853,-38.79518913085607,156.14072593472218,-22.25492365571445
186480.727858,158.36196022999707,250.42262191102088,1.5991563460209477,135.6484922950154,3.3250772128861144,-3.732198868514203,181.93211726939444,-13.570509336911137
186480.7279496,-95.41434603768064,-61.58847917987998,71.90683239807277,119.27665878815355,30.780489131992752,23.637190686235115,-47.98214980962052,2.3734986201786867
186480.7280412,-242.14562197616044,-246.22724653896927,74.01224495144692,4.73853029312329,23.608786393378267,21.799840204279917,-199.53021077409315,11.507188840272057
186480.7281282,-156.44922311309605,-175.21556272231197,-37.358935399243364,-255.85015889093947,-12.584704066458649,-15.076483476310708,-189.32968499487262,11.794480197644873
186480.7282238,278.0508180190632,277.30202479561046,-50.802637205433186,3.7790477913427196,-19.81176914990121,-30.79445294642192,188.11603280484775,-15.880976469789765
186480.7283157,209.988444744998,282.97294958685194,18.433111806501756,145.7563866592959,8.865877821482545,1.5387147804884975,216.09186093113658,-8.600420040625039
186480.7284086,-85.32624574879054,8.835510108168481,90.21610727355679,141.8729351157632,32.33448819631918,25.391654064810318,14.878538282117802,3.2031428992913233
186480.7285795,-218.2614585797915,-183.37850517558678,94.52961819809823,32.392513112965275,27.541679974364886,23.105552985264687,-136.42878798133188,7.53999854408913
186480.7289942,-149.89712172590293,-165.85443463732548,-5.2483366327943815,-217.23193650927072,-4.920107995157057,-12.133356530066804,-116.67694889057165,3.306165753808724
186480.7293532,297.0205871630675,336.00277898200943,-16.327364056986212,47.78296017400094,-10.57746099300909,-26.926862584996876,257.279458314048,-28.013505423869105
186480.7299912,229.45741717783997,343.1828768808947,50.97358193949755,179.94546259637798,15.322766559246471,7.128605545968771,292.2246524233722,-20.56582352738579
186480.730102,-46.330198357733934,59.18933373301792,118.91495780131612,177.122447135433,35.18382277448724,31.34756028242485,78.15327054989007,-7.503042430068086
186480.7301948,-199.55446668729144,-127.96799419990685,118.28620086708825,60.35074235705231,30.79806976434236,31.339236592651826,-65.52971273091231,3.7077058432165195
186480.7304661,-110.80686303396703,-87.36950683342286,10.702891195789533,-188.11069963894,-7.3486525152175375,-10.383862986420095,-51.000017167967684,0.7680840942237737
186480.7307114,298.9927992167035,372.6866682033351,-4.1216941890926435,75.19688107489246,-14.693720857734721,-28.091628220376656,314.9459043184031,-27.04807340805979
186480.763698,204.54598585870642,351.615879462547,60.32135134191087,203.58925427322697,10.178892342450089,3.187564878322986,327.44083698330223,-19.384187850965592
186480.8246515,-66.24571600713288,71.15770483815992,125.30006819223513,199.28776943563275,31.420138736968738,27.169014744760595,123.17063975900948,-4.753360736780756
186480.8246972,-235.73910177987645,-138.88998777869534,117.88832111871191,76.89055918890892,19.904504933874072,21.55034425989942,-40.632275795860636,4.319236635461813
186480.8247213,-189.72858904759002,-134.93100868434306,5.8700836434304335,-186.399742279932,-17.946489293578722,-15.595327810937704,-55.83887599980628,7.55976102553246
186480.824748,209.40097600432762,292.3571669801231,-17.718923670388776,62.134874857955744,-24.20175522318926,-29.499538648512207,275.08866930070354,-18.43393044989338
186480.8247692,106.6181945597155,237.58256246094817,31.784950060974577,167.78920252765244,0.22521627570617042,0.10994162902522575,252.58059663191088,-10.80391535779517
186480.8248014,-185.3196567616472,-79.18550828326943,83.55450551557848,152.93288765573232,18.801665285976352,21.007622379189165,6.0835084074269545,4.623090622507082
186480.8248337,-340.9378768495485,-296.54179015245757,69.12315640201368,20.913296013359393,8.315037779063186,17.21622504295653,-173.04647112561568,19.38683649429513
186480.8248733,-261.27332343965253,-289.39028126291555,-49.20630758485267,-242.63577644005937,-32.78949409942715,-24.684757661418075,-197.04346725686221,20.657433451360635
186480.8249122,164.94667182629047,162.6368166487099,-74.26110365181304,9.260740171537371,-42.234346043211254,-41.87318184184252,150.25323329581911,-8.268423535871689
186480.8249506,104.08003645344303,154.8088123160315,-19.75589760542285,121.25682425679994,-16.836983148670864,-13.077435177829937,160.823473391102,-4.122962511459196
186480.8249909,-115.82083104127189,-87.65856828949781,47.39509664144212,124.59990123875156,10.267713471981981,10.584058283822298,-24.86608537032029,7.583926401557264
186480.8250293,-261.6938244564568,-277.4529887349608,39.96126820689176,-4.169927614163484,5.420918392165003,5.064157517972756,-179.60331912576783,12.905202284593944
186480.8250649,-171.98231669230557,-231.68427710070117,-68.40562009625634,-267.5593399869987,-27.951134018872324,-35.187419794678966,-169.41227136968558,9.504219740437648
186480.8250992,246.8760745795392,234.3991957030895,-84.13304495115447,-0.5217069764576294,-34.19872289024164,-50.8859814361694,190.57898802981092,-17.826252659729104
186480.825128,163.94048549070968,207.2481461675776,-16.387513293367874,126.63882999768501,-3.950616768219831,-15.484844301501113,194.33111882317579,-5.028299764889233
186480.8251556,-113.16881774368387,-79.12007123160144,51.0798022419348,124.68765408986565,18.35281373508422,9.89106222890651,-29.961463533858762,9.851308734869384
186480.8251821,-250.18471655672903,-269.00518257447015,44.71672251524749,-2.155037442299373,8.594091487697053,8.42958032543282,-184.5438348012454,20.724656881222558
186480.825236,-160.33420884976027,-236.40588211699708,-63.96771511991006,-262.3509605239796,-30.124730082288032,-30.474005668162924,-187.28347934025695,17.70665834276248
186480.8252712,269.36728435155544,238.74382504746183,-80.22310597671937,6.936061740367897,-34.47491858576122,-43.909979102038044,180.51162239317304,-12.220742809856095
186480.825297,165.88890744707754,198.41875806772168,-19.593476938576437,112.32153171433276,-7.004957919007373,-12.606457427513222,178.30280397208364,-4.544615707694158
186480.8253218,-78.387657467849,-56.7334411611988,43.952770564800105,103.51514124848691,18.34563637223433,10.819316828362133,-26.28172223527978,9.441535046827163
186480.8253457,-228.2426609933546,-249.00026542902495,37.74466472809222,-20.74067919733841,11.450699456447957,7.948225935610392,-185.78847164712974,14.910234246159185
186480.825376,-139.26865357532745,-208.96807232004315,-71.08429099526101,-272.1784411014358,-25.474317499151862,-32.04494068539489,-177.11332766368653,10.388181685614803
186480.8254014,273.75267522478725,254.08015564891264,-79.35413732176443,2.892635147773163,-28.679536829224404,-45.614774951010126,180.14456606522893,-19.612638862850908
186480.8396766,189.6977261991516,215.8945347419776,-12.104717158628807,116.802926760996,0.7518177714845784,-10.472278052925233,184.40738373444717,-9.388352102860303
186480.9246352,-70.85784501923719,-49.5247964881262,53.333162257758325,110.46773598566979,19.02020069371844,12.527760738288002,-27.2334911966118,4.795304021155815
186480.9246822,-198.18138221782186,-216.10346948337417,48.338693260178346,-7.3869903092868965,12.698382053728674,11.127520759194692,-161.23267691835787,16.460774972586684
186480.9247115,-126.49316317400327,-193.22239639030752,-54.52999127034016,-259.71488932012534,-18.10355368515198,-21.51572519362937,-165.55619161436388,18.33815515817496
186480.9247369,290.47414069417135,267.7481336168784,-65.43801134203376,13.688528533527275,-20.847010645091864,-34.374985550414365,192.72187100425597,-12.674948209307157
186480.924763,184.93474578229035,218.97248772897404,-1.3012565809206649,120.04959534896608,7.30674471462828,-1.9126257862060427,177.55060946722875,-7.029543311884574
186480.9247917,-75.98412628963207,-52.14346518197854,56.21267722646063,110.34741204488671,26.899876673438023,17.523564503388304,-33.96920338259864,1.8141998414757605
186480.9248204,-226.17587494775188,-248.28996902772468,43.31421856587011,-16.8787574298363,15.52417554812306,8.67458561112477,-190.56988830155788,8.620525249055278
186480.9248504,-132.37397770149417,-196.80627362663125,-65.31171933369272,-274.4132871403667,-21.067979236965915,-30.917980153771087,-172.47889211864126,7.440923751349425
186480.9248788,290.2292718677735,266.995983689055,-75.15082658034358,-1.007795887406843,-26.865067552015642,-44.13361997670025,191.05058939548775,-21.539900326169814
186480.9249077,194.97733418086918,229.4746457133544,-10.395279356936069,113.17040099957751,0.055980841935949155,-8.109355860419287,191.7381013690184,-12.963711272829167
186480.9249372,-86.68011874358355,-56.96178291047859,57.70013215804501,113.14496529774269,25.194119273164777,18.918200959960224,-33.04351637912429,1.679648369632874
186480.9249814,-220.84776435949584,-237.28329187241837,50.99654577346495,-11.32472557187954,14.617496580407412,14.542288747783804,-178.02671536304842,10.38216687500411
186480.9250036,-143.6407686887075,-194.63223017583826,-51.713473872608056,-259.97445443254225,-19.327440490794075,-24.351406980398078,-170.13184700581147,10.662592438052839
186480.9250237,274.14508369568284,267.64465412079716,-61.06928810695643,14.724080962861414,-20.918667975828374,-37.45956783397612,189.23239539110128,-15.374307933677628
186480.9250459,156.53147535632473,210.91842587295238,0.3234796324183371,126.1286941877037,10.609744444368644,-3.5916364779222327,165.9938634286209,-5.156728746167386
186480.9250665,-104.20309955088578,-66.09424580592525,58.458860682897836,116.74320627324474,31.078845992921387,18.62085539349389,-42.33112301440582,5.533062937019858
186480.9250886,-229.93430441944264,-234.78529443404423,45.50260215978398,-20.52879117244167,13.530363087220923,9.81828347034028,-183.4304928888426,7.421237920768043
186480.9251096,-132.69383338191005,-182.1543877158364,-62.35896853389848,-267.1207599592649,-28.43675401438545,-31.580022866719844,-162.32634278714707,-1.5327835274545105
186480.9251304,284.0394952536826,286.35765129107835,-67.29151129236355,14.189142982198334,-30.569567484080533,-41.63814438232705,201.98192820865978,-29.846409730663332
186480.9251528,171.51467366321984,234.83398216140262,-3.641284136859438,129.4626859776744,-4.460346944070315,-8.276423290530847,183.19460082364344,-21.81534303292471
186480.9251753,-102.28892731012864,-50.29042859771836,59.67528018896081,117.05094599540591,20.17351878107309,15.036155738805178,-29.296780945869074,-5.019326492143792
186480.9251988,-244.0248895658615,-231.29202980562138,52.07984376455824,-12.43416792682536,12.964428599897584,9.249604373672943,-174.05349747803518,7.25133201564112
186480.9252217,-152.12130369409417,-172.41134684825886,-47.87843737774213,-244.04799409175553,-19.747443354135996,-25.35300021140437,-146.86439085029326,8.526891911664862
186480.9252449,252.67428188705276,269.2045322148911,-59.519032241521884,23.7986065409356,-25.583846694862203,-40.44551732206622,194.06283887840186,-23.561746746485383
186480.9370394,150.3961232554875,221.3728791488181,3.7934489058389866,131.05440923295853,3.6790850340985237,-7.809311400028719,177.8023914948709,-16.123059032826653
186481.0247245,-124.05379057832734,-75.12304364882313,64.55500822286453,114.56844397407644,22.921597400238497,12.404724903879016,-48.72430559330216,-5.9295899892761135
186481.0247851,-252.4516194362652,-247.56499824503572,53.93395969863306,-12.863291273778257,10.335191916013486,9.530267214183166,-189.09325499690135,3.3752272342010583
186481.0248249,-161.52876196321944,-191.10296013266526,-54.847739452758546,-249.96447751891017,-26.32221117258384,-27.70589240955435,-164.96943985351498,1.1559049422628418
186481.0248657,248.1039084517056,250.53638827975476,-61.853753296487504,11.42968033079098,-28.679330179030302,-39.07093894020155,177.85868850578558,-25.46824590829619
186481.024895,137.9960693872025,210.91373546829186,-2.8411845193095786,118.21902761851459,-2.813661062382451,-9.244573140714134,168.50420817813801,-16.454570356332738
186481.0249181,-119.06595906268716,-71.3159630372388,63.1792539756254,116.29259087100247,20.300425917043043,14.12938845503546,-46.88265135912721,-1.1266314013939054
186481.0250317,-277.714476073459,-276.39972245682486,51.760689929547404,-15.4246082513845,10.808278921549213,7.890520332880904,-211.2221949339643,8.639281067932181
186481.025062,-161.51890810420207,-203.64406794164404,-56.88834657871841,-248.7651330410549,-24.992690859745142,-27.35961081099924,-175.20304855244612,6.582061013431698
186481.0250899,244.4774734600441,241.46619098126166,-63.5714574867639,11.677573498908359,-26.14881259245322,-36.05311467771697,170.3957820634527,-22.017877868504463
186481.0251166,138.56553661435828,209.9416317892502,-3.344179861483653,121.3836758592719,3.3020866337698287,-3.08028830321172,165.79653339996165,-14.684421362034604
186481.0251437,-119.11707314199765,-78.8990858090149,60.329531568085926,111.89121153621183,24.465384717311416,17.073440955809616,-55.11705186207955,-3.809200129287298
186481.0251724,-246.72833100025522,-249.74396736535957,49.35259413134525,-20.110370015804357,15.298430520416787,12.423322836086626,-195.02626064785906,4.09841660186088
186481.0252013,-142.0623875300169,-190.46707803637096,-60.43404057277947,-256.64023050348135,-25.145941511145647,-29.519252117551456,-167.99703535232373,-2.792160716445631
186481.0252285,265.12966291800376,263.94317068196074,-68.60908178634267,12.009944004629503,-27.711599321916182,-39.972111703018584,182.35913888587694,-28.98350853736567
186481.025255,135.84408195186575,200.4937111731526,-7.96045519269008,125.53447149107672,3.2470455728048275,-2.9640222233790112,159.25397235335822,-16.177549161056074
186481.025281,-124.37652626579874,-77.18933781154387,57.60423979084496,122.00533849029586,28.888862265044434,26.525618721732997,-52.889419682461806,1.7888460489270006
186481.0253063,-270.44481051057977,-271.78523550224327,42.92214289510803,-26.039962848603267,20.1589221751447,23.785296302904214,-208.23240605004725,14.507505517577572
186481.025331,-147.11950671352406,-189.9825127586444,-63.424834953046535,-258.7848361899653,-13.503006330962311,-13.987657478701088,-165.75320100512317,12.111350325478144
186481.0253548,267.48714734526374,262.5214432191258,-68.2911018204074,13.925071388675867,-14.615376628697618,-25.875277890790862,183.97950066439176,-16.76002628442968
186481.0253847,141.31648931743877,200.59108655741284,-0.40955021732457375,121.71027398980462,14.455502921987971,10.74215342388009,159.23352408990965,-8.42510142276835
186481.0254116,-123.17852422305745,-91.21987831689573,60.84773299061942,112.31056113037725,35.80185800289868,30.287846928815146,-65.56318805152524,1.5376775621386383
186481.0254384,-268.19030450398515,-287.646920857201,47.15694041923246,-32.41274951258205,26.50569395326682,23.35593263479727,-226.50418388432453,10.066805138780428
186481.0254646,-153.70657487871188,-216.0884405677972,-60.88872684259756,-252.86483243011847,-10.423879182178132,-17.63281875847821,-192.47557087447768,6.450179272679851
186481.0254933,272.5126688158199,249.22269471724138,-67.54845193855215,18.664253294953163,-13.813413487595412,-27.385336341227962,171.2231049613602,-16.071463465624817
186481.0392987,130.60918254697975,172.1303221539471,-5.847996572279748,115.7468236738483,11.70622834055623,6.103090245196821,139.8350270314723,-3.978725837486384
186481.0749844,-112.08834975292893,-92.80145612264512,57.92743039226039,111.03534983920181,33.32287424763401,28.446212081357594,-69.27637936249957,10.216618541428451
186481.0750494,-265.1304516415041,-293.6360894930684,47.5487304780896,-30.59332626399487,25.189040361538805,22.721847502384257,-231.79400870386672,20.601304068915987
186481.0751044,-152.18719754271186,-219.31712133780223,-53.766305325482946,-254.46596770354043,-10.352833884657919,-16.718160843818772,-195.80499295021698,16.540454091502472
186481.075166,256.2223372744027,231.59239605459112,-64.14932945517702,18.716488380835074,-14.543332345366803,-27.240833438197782,156.85593455263006,-12.392987575189498
186481.0752345,135.9117635843401,174.4385233449507,-2.139183546036132,117.37701422519052,11.396321291247016,22.07231403021037,139.94980818421297,-4.6454787456924524
186481.0753019,-119.21768340733688,-95.50831545498227,61.325828161498904,117.98131971975076,31.91008092757333,46.1277383363762,-71.01167561954406,7.1705538246508596
186481.0753889,-261.0420628428167,-283.09308816775854,47.714848108416966,-31.17672989626713,22.787117793455355,35.60487684902456,-225.61680235320236,19.798003732414692
186481.075451,-142.16010962139785,-201.83360672510287,-54.019671193159326,-249.0153180837127,-10.893564552121948,-25.308136976335874,-187.43918934455277,15.942729315208219
186481.0755058,269.4604332520879,249.80557662909155,-61.06004170349114,28.970967195250978,-12.110690190704085,-47.05105965314639,165.77720557332057,-11.919818399101583
186481.0756142,136.27215818968307,179.9061074462292,2.625262157497236,119.33594848184885,15.091830399190979,-18.730405164461132,132.84306646840932,-3.516908756508485
186481.0757007,-113.49228827489307,-90.65196812448522,66.34480572274452,121.04065258176219,37.945103796250905,6.463618833437181,-72.67437456993383,7.410567434996835
186481.0757948,-257.58350509838385,-277.04880414450224,50.89478688293483,-31.26146140941319,26.29054031717626,6.425303777324643,-224.27023329749136,15.973834297975852
186481.0758868,-127.65875623941098,-180.45948722031326,-49.872982347089234,-245.26539537656797,-9.00329164541851,-23.193500264120573,-175.06925603751787,14.227078384661697
186481.0759748,258.7660601556755,243.9213939809174,-54.49185870554996,33.963322852088496,-10.838495173424729,-37.620307048934755,161.9611181326034,-10.72251088515122
186481.0760259,128.49072412759017,170.9043680720718,7.798979387351224,129.2157882414949,15.636569310708044,4.746796708695946,128.1640578838035,-0.3027888960082805
186481.0760782,-120.08430905636473,-101.62786890633681,68.82366576440377,128.53425443860493,33.4750584837756,20.342510651905528,-81.53529597015188,7.7555839424279265
186481.0761465,-255.63100420554832,-281.0768855030453,50.1017033979453,-34.938217226768735,19.9604462684966,6.524689675194715,-227.41971384777744,14.080393754492372
186481.0762589,-122.96758249152927,-182.54155897532738,-54.703641339028195,-246.9646087714586,-13.839957197050943,-35.48942016948256,-178.3431486871951,7.320228850056366
186481.0763483,290.52657129617563,275.0712243456483,-59.06222329856766,34.576395560477295,-14.758436731716802,-46.2068456976622,184.4081024349145,-21.619462175582
186481.0764193,145.8214078996424,193.6945580454033,2.5988820073468872,125.4396298227135,10.743335277772106,-18.639342817819077,143.83613342323255,-11.652805954739161
186481.0764827,-86.98459923092265,-59.38419838180343,71.34833899091558,142.6407675685912,35.54404079809348,7.593502692253637,-47.68266266780938,2.635466405155128
186481.0765443,-244.27102423219054,-264.904217820389,54.221114059692425,-23.08856868261868,26.954003434148134,4.625699877677313,-213.76055508597963,15.437046417115916
186481.0766254,-127.13835155528065,-183.63677890715712,-52.23880661632366,-245.0865310556264,-8.42990195267144,-30.754834024821562,-173.5662932379707,11.757695959676827
186481.0766959,285.97400132277085,266.0607621361519,-53.5195671750523,33.764335363117446,-12.27197900240149,-36.257457061629765,182.52747580270002,-16.383514176129914
186481.0958608,161.18635844996635,211.5658737263061,12.614543369673957,143.64229785870978,16.055446998938603,-1.3125708024104057,162.6418241518486,-6.994157644067656
186481.1746601,-67.95389845351275,-35.816664498784405,74.89743369326948,152.53487389308722,35.907834469564875,14.236713696037874,-23.55624459350664,3.6178298771394175
186481.1747356,-227.3317063641407,-237.94128135305738,48.6069288337221,-34.22081967074131,23.50850897707465,-6.419762706853277,-187.92993061307695,11.83997847395666
186481.174777,-105.91370316782115,-155.10151626620046,-59.44125383809801,-258.37406583928066,-9.436675484084976,-58.131225022194485,-145.00776955922612,9.314444380655416
186481.174814,301.13545180381175,297.11590260181396,-58.32202223934422,22.56713739171299,-8.775789027108981,-77.13208428007836,209.4392757405841,-23.03704197616674
186481.1748577,186.96960609759873,238.9470305632576,12.636095836388458,135.08507513100884,20.68993273932248,-46.59192827294555,185.69617545470845,-12.096092823175049
186481.1748852,-61.098387791355364,-23.86451976313824,78.56489331995078,156.82276390494005,38.67815712788845,-25.861112553181105,-11.891685414791773,0.3156493188948204
186481.1749265,-226.97007186673613,-236.90444337190362,55.80082486445557,-26.942190906217004,23.208659402206138,-31.62675027533391,-180.69556217435988,13.250476825661373
186481.1749672,-117.28243453202508,-156.2081962843174,-51.293475900142695,-248.54771009567526,-9.915446507046024,-67.17242369859191,-144.65530616084283,10.09989002430607
186481.1750071,293.8350232512793,276.6472370460439,-53.48695807397824,25.601473061755684,-7.742633924718497,-74.39602704172523,199.98127795189907,-14.178942187304383
186481.1750516,171.0012125346144,212.06831603456953,11.27614270412964,131.8628511853293,23.556580608528392,-37.85785391617537,170.4771518039528,-3.994637792364223
186481.1750825,-59.039131119148124,-29.385875661987825,78.41023846352648,153.67243173062639,47.1559731550372,-10.60244680717703,-8.346936243916787,8.43442027670769
186481.1751066,-224.8259299615946,-238.24083057891082,56.644741008419196,-28.857276849977154,33.46308404371992,-13.743289246488494,-177.06002351659023,18.26961867096192
186481.1751377,-93.67798720459521,-148.1486636450228,-55.00881425677413,-257.2033939619562,-5.724156101254275,-52.38379390475407,-126.50279827654828,10.971104707484848
186481.1752089,307.0379535111428,294.9629923748615,-60.077937719348384,29.509861599437237,-7.529454506519778,-58.264215415229884,220.60148176907356,-14.216649564125632
186481.1752432,181.04806551903533,226.4523235989337,6.201267793161167,130.39555773589828,20.492556192868477,-22.411118143126796,186.97780448089773,-0.2995876275520981
186481.1752777,-65.8964360848692,-41.21544685205792,70.30763533385853,145.9402277513328,40.302767656244804,-3.5440744563436244,-13.713975159324605,10.813973953469189
186481.1753922,-227.4523707412044,-248.15556621997263,46.823625901048565,-36.940500714410504,30.135655650936137,-10.366183302945466,-185.32838426273065,23.58280779389485
186481.1754327,-111.07792720811543,-176.5127713536911,-60.16010217442107,-253.216485424242,-2.4469683581082933,-45.676343413401106,-151.94776313207763,18.993924115844393
186481.1754717,294.29494309588824,278.18530381062754,-54.900337636484636,41.28665172930755,0.7340816624396282,-47.2568039237554,203.40487853068313,-6.503465135937603
186481.1755052,155.4508657809273,189.739757026845,5.97106156260843,120.58016100204566,25.58859165826065,-12.083194276772929,158.6677097167993,3.0118723102039553
186481.1755331,-64.19053741578699,-46.9482100592771,67.83997627577489,129.89686686109903,42.12375918320783,12.056553277725236,-20.31460672462356,12.696758692673349
186481.17556,-214.68878284288868,-236.50971502083746,42.76066090719035,-43.53371596089664,26.962975276992818,7.664419839262914,-175.54558743661428,25.506566715007274
186481.1755928,-87.96613219321836,-150.9505976306397,-61.03552217766015,-252.1598661348014,-8.32944795100417,-29.852200565939512,-129.14078507644422,20.07839964683961
186481.1756254,296.9536391028422,282.8473490115601,-60.307828489330625,40.34692403428578,-11.275463588668295,-40.78815084431671,207.63237986091332,-13.048824566414766
186481.1925603,141.8590493805798,178.87795474586693,1.5632879507301716,116.65352807595926,13.71530192354593,-10.553709892553437,143.14757786417562,-8.479778398152469
186481.2746408,-112.03497932794045,-99.2586411685613,60.790696718625185,126.98967595445674,26.08507877389056,4.7657101854681665,-66.95689220311121,-5.440271917091774
186481.2746844,-252.8867309860273,-283.24512056776115,38.12948955263899,-46.88315731909795,5.820622006826536,-4.694849690891658,-221.49458014471236,1.4239032694758431
186481.2747063,-132.39998290054663,-206.79978813911305,-68.9314510895328,-262.08519904819025,-32.63923291819082,-43.42615177076694,-182.07836199113297,-5.055347258520093
186481.2747434,266.1329293375684,248.68065043804478,-68.1462701047852,33.97968669390863,-31.89914119839949,-45.41732728252283,178.39329123488062,-27.637458934343535
186481.2747723,94.34975467595501,132.54111735501598,-4.265439401426103,104.5976779369967,-1.7498305383348303,-9.85260790253465,110.01612397372115,-14.714590954202784
186481.274815,-150.84047669171093,-133.88682613248477,60.41933992518244,118.2564285182718,19.5916229471057,13.485716252228217,-95.64680456739424,-4.4319447599701824
186481.274857,-307.7851180660567,-346.60955996767177,38.674718807990075,-52.44466241965269,4.846543009077916,8.610032909256528,-268.56630081535434,4.1811419849144205
186481.2748953,-175.54403848414825,-251.27306513741144,-63.642562733139115,-263.5523360748419,-33.59429378680592,-29.027122260935073,-220.45438670308053,-4.565447321164225
186481.2749351,221.81779170670802,193.8586386640601,-64.73290431119212,29.69525348863229,-38.962865787952495,-39.85121266289081,129.46713694062376,-37.794496429963075
186481.2749655,73.14480996315444,104.36891726644505,-2.4521493597345554,101.96478586947637,-16.549217457442396,-9.878066872752811,78.0940603144578,-27.04012906172207
186481.2749928,-160.44488728276232,-144.02153387173536,56.743104006454686,117.54343648935657,3.8853704269605194,8.263338160866077,-109.87340786661504,-16.60431537274502
186481.2750194,-281.85222355204564,-309.46387429434884,33.036897622838914,-52.149029399278064,-8.061143818633637,2.124038229314582,-243.91635348860603,-4.651778300851566
186481.2750503,-158.33072613558744,-227.57902472701082,-72.73028367048705,-257.56922371491737,-39.723965537908676,-35.28658639530396,-200.97779906985267,-7.330897691640935
186481.275077,235.55585964757285,216.80955198259636,-61.6365156469322,41.064279099785054,-32.842101591928625,-35.21753239987794,147.1042778631131,-29.150309639625185
186481.2751072,66.83438969946658,101.25166404239927,4.089607726277226,111.34122130498824,-5.769938154096895,0.7333085548142506,76.1842615709811,-15.029857092673243
186481.275163,-153.41566026856353,-142.42036615248992,69.17345839924025,118.70651281678337,13.093588159950237,21.172377843273935,-110.554445087734,-6.630187387487564
186481.2752054,-285.8765263424449,-323.83140384322223,45.33825190749281,-56.34360745510126,-0.24040567454012773,13.544031519927774,-259.51636157829876,3.426910229466566
186481.2752314,-146.7184387563863,-225.80891106014494,-60.41311942774924,-257.3794199709246,-32.5292563954159,-22.12444255586638,-200.83602589416603,0.4448596543080243
186481.2752549,241.45568920906294,213.68396694146378,-59.18047053560841,40.02865564959282,-30.054803310020212,-28.787218363705584,143.89370123323866,-27.459779032424247
186481.2752731,78.77608196570424,104.18505751250709,3.8789805875577112,113.44681511611323,0.02918911068774044,5.176330718083498,77.30041431968402,-14.59801235085521
186481.275292,-148.60812693295085,-152.73954046245925,63.58750508400033,121.21959681924275,18.08898579613739,22.841645978095137,-117.8653495494175,-5.435592874560676
186481.2753088,-251.19121868054236,-304.16123994373976,40.86882109713544,-48.8636686704056,4.733472772427376,16.425298733060615,-244.1730240846252,7.2052570318388565
186481.2753278,-103.22715319070828,-196.9096341939613,-60.99495703205045,-244.79382597325872,-28.982140024960195,-20.017437302870256,-181.3472770722159,2.8979000606808034
186481.275348,297.2644275529699,258.4049626229336,-59.757604729833986,49.641750605902374,-24.412181626655407,-25.28595893334001,176.7923646694327,-26.145211994623892
186481.2905253,113.22366169678297,134.07327000041755,1.5546417394506342,113.03807089319032,3.226269985552886,9.567840241968643,105.54819934474759,-15.081278162227575
186481.3746514,-108.72978588911977,-115.49832872278647,70.14160764442701,122.7322423019695,26.138181781551395,34.549018508908944,-87.54961118371298,-0.15157950706523948
186481.374703,-249.75336379480518,-308.68515613435244,45.6375093390206,-54.17881778074057,15.228405348940694,28.221121198045672,-243.79040083810597,9.431272700207032
186481.3747324,-110.77639759214898,-210.1017477697741,-54.43770294056392,-245.4450462839538,-17.89440308893657,-8.050306426404763,-188.4973851078581,4.591103100736536
186481.3747885,289.6510740808607,239.5574420692942,-45.24872812431402,64.11814344239627,-14.495505688072317,-10.675889545557514,167.5218341678737,-19.57036529635672
186481.3748374,127.32496689279188,133.37136857948448,16.892048689845094,126.46856405173583,13.755311145044853,21.390695267425123,108.05445521674531,-7.783602591530515
186481.3749043,-82.253051718486,-98.01693706319774,69.26777691343942,126.33239951983603,31.32605306839317,35.9935656418424,-69.82762516216144,-0.815181512787376
186481.3749356,-202.24708888672927,-261.1427655892769,42.83366509911683,-49.71785699666127,16.806202317752696,24.50311377122412,-203.81290367733612,7.73252573069963
186481.5913083,-56.08584407988896,-73.9339739714834,21.186769503238423,36.00809614554743,-6.6892154175776515,0.36181474969858307,-21.443108310831825,8.744929502575921
186482.2122357,76.6368738667474,16.952004870714205,-63.90957770470027,-12.99299311482136,-93.17031768394449,-37.36818401331746,-58.07654502114421,36.636727227647114
186482.5232924,191.97766418812202,158.213572201204,-120.29569345496236,-57.446314251469346,-145.4354481465074,-64.86160290914077,8.729392454908805,50.97604237002368
186483.9921795,386.69006754051503,267.6285001598337,-268.61255429436295,-29.914008813482837,-308.22960814519803,-67.62119887525643,-18.498322705753054,83.21055021048514
186484.6084085,-24.00939673326002,-163.46815379223293,-243.153756081314,-130.73807742623572,-319.0448392768885,-127.14572143188497,-332.31903220495565,116.26954289466369
186486.4072482,-143.14410226312916,-247.12087270071916,-406.1838016901031,-283.9589305621323,-447.448148989933,-342.18677727241584,-572.1313697279518,163.3163781488235
186486.9073098,-86.10585207085336,-52.3188235992587,-315.6793868453194,-100.19312724341228,-374.72623418718945,-295.25226218295563,-373.3373870139865,141.45414428248978
186487.5237267,8.740182573947038,201.02751265475686,-244.12090776427954,177.54439512999994,-258.23871125464166,-110.65951855719038,-207.3257118744632,121.06135562385771
186488.0404428,145.80636648630525,-143.68851618293775,-160.84174653204968,223.6355417603753,-190.21472689694974,205.6621104442272,-65.63831373015,81.2160323383323
186488.607453,193.24520655878547,-595.0211973299339,-160.24475802021038,167.47806009586634,-182.3838951636817,123.59054359721915,-20.097977539010344,120.72174297864876
186489.10842,267.558212955105,-640.2906619364137,-196.35465873130465,67.02567382359364,-224.5978780449684,30.26440865936354,18.898874790922036,98.74375613946108
186489.6238739,307.6184374704727,-596.614353340982,-303.045780258843,-74.11712784703987,-284.44671869425247,-156.76478617404655,-295.0626364875129,106.43923088939243
186490.2405297,361.38314516627906,-260.78103915272027,-330.74742114792775,39.22138712255412,-387.859079688639,-351.8049364659672,-399.06640550277893,132.58907346747537
186490.8078318,229.0681717815587,338.70080579971454,-421.1450773909046,69.06647075059033,-429.2790456022699,-333.9696449801786,-438.1378232906209,148.0205448923324
186491.4736747,147.75979377016256,378.2403430523657,-448.7693554552043,32.35887195824489,-438.3846237483947,-215.29639887960485,-418.0511557470938,178.76478931958502
186491.9066242,89.08176065400221,100.60711107481302,-443.33603927817785,20.558536692881262,-515.1958013405963,-270.2718923054196,-340.6639931442331,216.66416542367716
186492.5232583,95.13289140390225,-286.0700388676146,-436.4548598917854,46.62398944773656,-519.6415403666208,-67.85407648301668,-310.345441590205,228.3601173826043
186493.0398696,139.17231364586883,-330.06957901740816,-427.9645328022939,78.00689951565073,-503.15370564934227,44.75428066098753,-326.95106512790807,221.7276427990918
186493.5397388,213.57640195862257,152.71268958639473,-398.24966894928235,114.51928801006977,-462.6013018740164,-129.79066274871423,-204.6074284587152,260.2784574081778
186494.006182,176.40373282376726,-476.0643519650728,-422.9614635750362,132.8272595924932,-457.26418264293,-148.0779564951539,-400.1896113866627,221.96825930304377
186494.6242903,289.1352617859793,-576.01389422644,-480.14966684067207,111.73641021158835,-481.79784305581063,1.3449298431852412,-398.93445406231683,229.31696186683232
186495.1392055,368.0560796358275,-151.28115118171058,-552.4288454316982,49.377960039005046,-488.67800721697733,-14.24407244794429,-431.832592905464,229.77822064760596
186495.6395121,378.49465267019536,197.73855763094684,-593.108622514697,-20.878927665893016,-470.48155296408754,100.72780662161506,-499.4436243717914,239.5097899350476
186496.1464822,434.2883825293931,131.58542940857103,-573.4286044177541,95.03474092052943,-525.4193933742293,-452.97889590344766,-322.5654482902155,201.03146170495984
186496.822674,92.14327116075492,-215.7310893480219,-502.20778989873656,-4.324495014157918,-492.7965178693475,-258.82210648064824,-348.8296286242462,220.43564524995386
186497.3390616,-54.27065022966292,-692.1021717164011,-399.199650259432,-9.34596528732672,-2181.2507767227107,163.25197387988413,-233.24763119030501,169.1807590428644
186497.9222404,-45.30625283540735,-1115.7500064880282,-206.10169644720912,359.37628390025566,-3654.264332732175,623.7665669337041,-172.5612118082072,70.12301160382555
186498.4393269,15.01222899357947,-1174.8151532893885,-91.30161286237092,518.9390664382545,420.1711288929573,242.53257152877154,-130.3802171447885,31.82301141518751
186498.9424885,76.3901744818321,-787.65011683077,-9.615798640535807,483.0292672333485,1222.5515162124002,412.94870268616756,-1.6871504946649338,54.48132045843619
186499.5227762,90.07959022626119,-86.46779328034336,46.37078453557916,251.49618934864645,1245.6745553055039,361.7719121520513,76.87205542390507,63.54695036325086
186500.0392379,62.65611605432673,246.91007134922484,123.08642572125837,91.89814492166215,1345.3376603635575,41.462671328348506,218.89060394230341,21.820125181914307
186500.538852,28.735263047491344,585.9062440193275,242.37470602579026,191.33662435895735,1504.0439235550225,-27.341967419618868,338.6933412678939,-13.8458486953146
186501.1222635,14.413357029215604,465.2466500002854,256.9054691340519,37.833308593154015,992.0945761229968,204.89376698127307,317.68168276622777,-44.70639572381381
186501.6401691,-156.92910213305078,520.2423872944182,319.62652305229733,70.06826605530068,347.66595707776924,311.1648945404636,277.4437205663071,-133.68648840889912
186502.1555827,-243.51399117705648,524.1438142338393,351.8260245195231,74.75057453508657,-227.7759824371674,336.8937247694958,294.92288149638625,-184.381281641216
186502.7387841,-286.6671118507817,916.9950619296309,430.03802661903535,169.05040183631493,-207.2133938362199,158.95275981238638,261.04511558150193,-180.93433043463853
186503.3384379,-430.6620043788779,534.8506744427566,441.4646724794136,108.77690859677949,127.5691236529392,284.772081869432,171.5856419043632,-199.888411026377
186503.8555448,-463.7978585308242,346.6833953796279,510.6606825176999,173.2103871043047,809.4476701667418,229.48937736268772,232.3908945700491,-162.03136582396854
186504.3216781,-385.6728089256304,250.27984707718565,561.790431620946,118.61179605374957,1408.72315577394,203.12015159087287,339.3787238176227,-107.22975059015113
186504.8579885,-532.1497873252822,-49.41116689215346,569.3993666538702,-138.76948035408145,1448.7168923175695,241.4227482837046,152.67113821293006,-87.43575611013983
186505.4548547,-228.63918448009542,641.760230043421,556.5543814233677,14.884768875216878,1045.9719835445198,337.2284852248898,318.5069512343395,-125.39040368543834
186506.0714511,-113.54507702670526,693.4777803668339,564.9975166002794,65.64842441614897,726.5490255939749,338.8512460670587,355.8275188792707,-166.91490458136064
186506.539808,-144.79745441092848,388.5839739823714,568.3199763257026,39.26712493007149,444.98984006240516,499.50086702849256,286.86983965103855,-185.8633852091939
186507.0378732,-165.22571741262186,207.57387474595816,580.3876077491509,-11.109722803586067,241.55722279027214,441.8576885044836,261.8012422053519,-208.18931574084067
186507.6550863,-258.3449411502749,279.725001208476,587.6160251924895,-71.09305529711031,57.33818551625791,272.2824082010362,250.8193282677296,-240.50596547561474
186508.1709289,-253.8468304751314,220.231803679927,615.0020414926064,-56.98367353684284,298.728035521759,370.60005559908507,332.5007277010935,-262.88740600851855
186508.6377275,-177.64792056268493,449.5280985219738,652.1730074877655,-22.941650737267395,843.4541794604779,282.161826916607,426.75920112594656,-250.19160988569493
186509.2713419,-138.9404384059779,701.0213999374791,673.2109436677687,-55.52385197066073,1532.8923378297427,62.405118042535605,429.77091172040696,-237.24802480247908
186509.8048385,-71.04724649945769,930.7089996112672,700.9983578681579,-117.84853936612478,2088.183131590111,-204.32084889251115,491.73623817632733,-176.02761675621326
186510.2375555,18.49367019091642,1396.2786898927168,702.057755376087,-184.0982854460882,2297.418899435352,-107.42820824014086,531.4277021286925,-124.65794580521049
186510.7543171,83.65082491905412,1779.7627642724615,687.669381804863,-317.61479883220966,1844.8231018045785,-143.2773261350566,646.8266793786527,-85.3484271478035
186511.3856989,205.2412536026825,2363.6861347382974,611.4056633784146,-294.42213217805056,935.0717930934854,-283.737492674023,708.5098567102743,-94.69261596195823
186511.938472,41.62677146048918,2202.9877166691513,622.4906248089263,-338.1299637579509,68.8563576619515,6.929895186728288,567.472487433464,-125.89429678511769
186512.454231,-15.161991723296069,2052.0512889686743,603.2947343219049,-398.08884203405137,-511.27386290214895,148.65051551693549,565.3149072703226,-116.12446337325332
186512.9713043,-79.58502562254881,1705.3671497746539,610.9630800905663,-495.13284892300237,-932.7410233250034,203.31854600171775,571.7895456060613,-153.72137907936104
186513.5371745,-133.29348896205966,1115.3709792840732,569.756191243904,-437.82811655355977,-1278.980050743401,-41.06636576633686,753.8589021526172,-284.42087458883225
186514.1539649,-29.433599891418822,323.6633619000395,498.4600310707234,-56.833066505448926,-1129.1312924107349,1562.0116850527197,685.4693134255263,-399.22752993450507
186514.6703501,-86.38404409385214,542.9410961018057,546.6123064248599,-6.966963365684705,-645.5117315096487,1485.2658253261625,1310.7804940311498,-502.9946420090555
186515.1701422,-111.78775073832617,561.8383262898028,558.4933509844954,-46.2574186976351,-254.90273254195745,973.5969603377189,1786.803165636682,-251.8242636996879
186515.6369816,-44.72858399339462,527.1666900928421,600.2427533914687,-165.8854954808254,-163.65015061716622,11.111029598573623,2079.557200880122,-195.1770744763794
186516.2390345,38.97309420203919,695.430581276587,621.8300916712267,-242.70707800118362,33.1706397179687,-158.07224543870007,2140.29899651768,-134.74817327936228
186516.8703014,-82.36092991057251,668.4278935671218,665.5168354959147,-321.11876107235275,89.73939788065991,-19.381558640317962,1910.628934717758,-203.00731089255464
186517.3699459,-276.66693404353083,342.8984760864282,658.6729978228971,-319.2781683800076,76.00306896298162,312.6518211065236,1493.1546696759951,-313.3249679058213
186517.8552381,-489.66138644094315,-230.89864645374018,679.8499879333218,-230.74824846419426,36.170512720658735,710.5168334140203,1143.9854364718167,-421.5399343575876
186518.5937445,-319.94839105791914,-541.2921102034998,580.7203545813255,-207.42392026788792,256.28218875481025,975.7429974195859,1121.492272018234,-490.71351890831284
186518.9722959,-229.5298039735751,-797.8055132008247,531.9302762705339,-129.00224879917292,676.9187109910954,999.8586483604613,1246.950646291366,-493.4770319745311
186519.6531123,-155.06062817832355,-857.7400492827663,502.28304964169706,-79.66389116369095,1085.3202997022233,805.4989009069686,1610.5608194165916,-478.4789304471881
186520.1899074,-40.165447314798826,-538.2963772192743,515.9795517933259,-80.20699423250261,1617.720723068664,833.2224403188693,2082.442322518529,-409.27095924017755
186520.720009,-307.16087201437716,-1006.4213002831991,520.5521698741487,-274.50670255539796,1485.1100580893758,413.3716909632831,1980.858924379097,-410.6491902820401
186521.1961071,-50.96578756859856,-959.6493856122745,504.7581682772958,-254.18851413177515,1644.6211210336348,317.5308384978482,2034.2137484031891,-355.38932669913913
186521.8867506,23.180249425487716,-758.8480470445922,553.3747970193496,-75.54156185023896,1569.9934320340376,283.66235391152964,2290.7831706534607,-366.34144655798457
186522.3535577,16.56567917458628,-718.9504339499287,571.007737365665,-33.218896895704916,1513.3810156709371,335.57805402723216,2344.0248325639636,-393.29766296038747
186522.9525123,-98.28919959456132,-852.1997677466934,570.0867014690486,-53.38852103730733,1447.2812594177756,385.895809964318,2205.339868725402,-440.13481119745495
186523.4692935,-168.49822969484927,-984.2723455098464,554.9049786297962,-72.90256994922925,1500.419921394479,467.64579230612685,2043.9405687764931,-509.25209549638913
186523.9857198,-160.30762573175093,-996.5714209518449,524.3463593694097,-96.56913716086791,1623.343921650973,560.7765244072821,1972.651205407337,-543.5555632891034
186524.5025136,-132.47788715933802,-960.4926913334382,508.101566934521,-81.1177242361756,1808.5648662602262,558.1036030584071,1939.5342326593884,-559.2379941663377
186525.1201779,18.30796810599543,-792.6488347973911,502.7395546833054,-53.687409279604026,1959.8662658271353,393.73907260501096,1950.453120242075,-543.8842404149115
186525.5883126,169.96262234632195,-224.16764037014661,490.61050917144803,-69.50400159402272,2077.483367684546,133.21900629530523,2104.3176977144276,-491.51039513375565
186526.1865445,0.36218437063769215,-167.497987500249,539.9193318783512,-200.7559574747678,2059.2557216353857,-345.9215156954583,1793.3686778952258,-429.24757452130575
186526.7026551,-180.29896547356384,-154.23311822194754,606.218685738713,-364.5182427373654,1820.323850845029,-885.2201521628828,1442.4131611984753,-375.29802638068907
186527.2686599,-218.45930136435027,-274.4565651937844,612.4059903712682,-478.7244215055763,1405.5564338642887,-1031.0784029529136,1099.3777464511782,-384.866230974891
186527.969485,-236.18943329099102,-155.14069585821812,664.2670308458219,-588.2833356658567,1149.2273258683197,-1275.2859895193553,459.45199021421104,-360.7396435363945
186528.5352735,-935.0135315260247,47.18925190187365,740.7194312362528,-674.7426879399407,902.2472388749634,-1330.6103128713962,62.945573111338945,-352.0068819992383
186529.1854998,-789.9709569791335,105.89082860547654,759.6774747333418,-719.996951400359,657.2567845732956,-1384.5988207735822,-400.50919243971657,-392.0342740517334
186529.6519202,-546.0113536623662,169.77396919789908,769.3173014035278,-726.2190816587781,619.6255011768399,-1268.1314927753588,-828.1949789092992,-410.10369663227675
186530.2131123,-348.6924430253216,199.52688308844824,792.4243893426572,-560.8205786853521,734.9120016855495,-1144.4808542698565,-1281.8283727694961,-411.229027590559
186530.8015777,-195.8149604047826,652.4685707534968,686.202344068565,-662.8487769641763,1137.8163485153596,-929.3247338958491,-1381.4354402636282,-455.8135518478426
186531.252508,-320.7198675783902,169.36584605487008,743.5435374404059,-400.63046596617437,930.3269140739055,-1122.607251093017,-1903.1844688316069,-465.1428722934849
186532.0018201,-732.0502175524698,-59.68225383989346,702.5572030863021,-568.9274616962311,808.2554799967193,-939.4338285087903,-2228.9207086589913,-436.7611074229104
186532.6189656,-992.6255471375597,682.3269044010283,697.7049963317261,-285.6054517727443,772.5584399819963,-600.6141240638651,-2172.7307084290264,-490.07937441993215
186533.0823171,-1235.5539930152488,185.00632773539928,672.8172293131079,-452.468969455802,900.3879132985901,-263.78970605592826,-2243.296086352634,-406.98872276449765
186533.7527746,-758.3810967195413,257.46854597241054,642.2836023406055,-238.306082010114,728.1072759479096,-271.0011721059893,-1746.8115874707937,-402.8079592837456
186534.1850001,-250.0477487526358,-29.10774257628327,640.5082082089771,-354.5139890008103,897.2078508614405,-282.6445220231267,-1563.4462263527469,-401.46900188205166
186534.7177642,-194.52751674657475,-143.5149130942882,650.4827892635725,-458.2925927879294,1162.7375768365687,-393.52816341918265,-1522.4831534222217,-401.8063786039142
186535.3559484,-238.46888376605852,-67.19282154101438,630.7321408879212,-471.9641617907175,1236.5865563352374,-440.16262138147863,-1565.463470448272,-396.64291040778573
186535.8229875,-695.9710191248828,-223.50071419536425,584.5730031234584,-593.8102121500496,1108.6848988271477,-508.49468949923687,-1834.3413907458535,-409.7298022046707
186536.4046397,-558.1990020003775,240.79029745488288,634.1468276168964,-277.03425281177465,1014.2120705556217,-571.2633350544916,-1627.4863273745943,-426.30476990719376
186536.9498514,-573.6133905164002,312.11779891429615,617.0007156741232,-173.53771058875623,928.4203954159098,-429.7803929917189,-1617.9611141523126,-412.9111627142841
186537.5183809,-498.29605574303696,280.0745379201653,584.8014059189011,-134.3338845750825,885.2733148444416,-158.5581300794741,-1561.7922827167695,-398.46490908448885
186538.0024676,-314.455309070446,180.04796147213318,558.9061733853508,-111.1036420696168,874.4767796750333,-23.679700992626067,-1454.0286503715697,-380.72938875580087
186538.551024,49.584046570353166,298.17594853235914,517.196127690197,37.79943048355477,1197.2339907951455,369.139513605223,-1275.551957995238,-326.81414698641055
186539.0031766,84.26633543918467,149.71118904625763,545.53789724034,-45.58072948332929,1201.1781687664707,88.9777965669108,-1115.4262524599171,-325.9223328558589
186540.3379082,105.32441209300896,22.845489202053614,570.6712775860378,-55.97200013693869,1181.2867546918433,-189.12187801636128,-975.614349569727,-327.3831608186654
186540.8005196,105.15788463923559,-84.58488574183025,628.9407618028591,-42.179883528675134,814.7148285121948,-776.6806815404866,-988.6959867132314,-333.98122944356226
186541.3011288,484.99689363938717,175.65971994553286,601.3804127442559,17.087384326844557,511.0252649608947,-704.2750553614914,-702.9761242812942,-269.1443330602159
186542.5002279,269.43876767223617,-127.01402673784469,652.4755610132846,112.4356659259342,-365.0177464679299,-403.26075568553426,-951.4435034978794,-367.1386359131956
186543.0008605,563.176130424328,-85.41336714051045,639.0732019224538,147.31048238513046,630.4888830228276,-41.13718825371734,-819.0437858250864,-238.9394062759958
186543.6339307,594.5875621424334,158.95047266532606,615.0343542135038,148.00664128947113,1213.8179497082265,-17.670415778105166,-699.9472252518165,-203.6589089289012
186544.2678931,758.4118821439174,498.8960861611297,684.5834639101433,144.80023470481507,1202.2852077051803,-213.61474766763104,-503.2451141947944,-201.31890038768717
186544.8004572,687.5954095099866,556.2709707493473,695.054667951006,209.3250696234802,1067.9390555730092,-314.75285808564627,-374.6643543678921,-236.37738208876308
186545.3167136,794.9605519607555,393.10173892023204,668.4139482767845,225.70088540368585,629.1070420830225,-292.8992938233788,-309.42952655403565,-257.0999508071604
186545.8166112,787.8965454934171,-51.46186417617719,645.6275160384512,214.03687203187292,365.2034036727898,-74.18793324074022,-340.3473747801638,-257.73853902490816
186546.3504932,521.3868045767922,-1032.0997700516832,583.3701239774068,34.93931137249842,140.61270207172652,150.54091063158057,-613.7057084777362,-258.860832228851
186546.9170227,600.1482827627574,-1316.9094533746024,595.3426569601754,101.17478233164299,451.2978466232971,213.9517176992556,-483.5367971601099,-211.9710899491063
186547.4056812,369.1236898513197,-1309.650707159276,609.9106417993667,-28.75467961457157,766.1823150635032,263.211157231814,-422.02784424735114,-196.6992291771423
186547.8997559,105.53057655428336,-1132.6473083771866,612.5982189602892,-168.41212606241487,827.4007057242097,159.05107472148666,-372.2426590166074,-200.43797823151232
186548.5167294,-332.196519248745,-939.4269388075162,621.2749600071252,-248.4531595733465,806.1781632456689,-38.35402262893058,-204.81809351792776,-232.92073161452143
186549.0162022,-416.2319821704597,-831.1214213077112,604.6018193177964,-316.1286429855825,748.8696391959606,-171.31790762589844,-157.30429541204558,-241.75723582605497
186549.4996124,-350.40053856235374,-953.104192231859,560.8167038880551,-349.83513462096414,707.6092652855145,-241.71357965502375,-194.2624773379506,-250.32023445702737
186550.1322761,140.12205305602538,-810.2052449207702,501.2965091988829,-772.0708834547403,-1813.7593975416503,-123.95625111729012,109.49952617983729,-453.67789052103643
186550.6156905,1274.4039467679559,240.32436446259953,853.9671195300464,-244.9981885777969,12659.75102778367,-883.5474612406517,2753.503819767432,3475.5444417310637
186551.2509859,463.4832667283483,-2102.972528802477,1052.7533178760273,348.8962317210439,19246.086831722398,1650.5286141283143,6259.920944757427,4198.739943525974
186552.1577962,-458.3703225378065,-2383.0345578603337,897.838981545543,467.36833281207,14835.324536786567,1777.616827752584,6257.712142321059,2950.762045924298
186552.7346174,-971.4366935738133,-2161.1525630600795,740.3393167488543,492.3724659192055,6398.841379725702,1444.5016840585986,4649.799256784167,869.906706501095
186553.7556221,-953.7343527821773,-1546.7134402610516,533.5725858027058,338.2714467439748,-452.84643883266835,891.2250133113625,2473.1193982844597,-1071.6433430231227
186554.2520995,-783.1456458907786,-911.743544371172,471.23380779414447,135.9704891654012,-3236.842032250024,209.67574315059755,709.680848633081,-1859.744647525521
186554.7460166,-581.0395394788276,-76.62458456064905,478.5620230209497,323.2892912960069,-2208.3979137809365,-16.657258780846405,412.760268754304,-1142.8034316301118
186554.9704046,5.206696246505544,-23.68299192543509,568.6882869456349,25.35646112708673,3019.441346945554,23.083928448231745,1197.0462266054565,-95.55217053514934
186555.69041,42.4401540278368,-550.3410469507235,772.4177283216841,-227.69622312548472,8825.429314834102,228.33444134134515,2808.9392416746305,-82.4219349923867
186556.2147553,246.43009779095928,-830.807461501533,915.0234406849836,-200.879278118578,12272.373232448666,489.4424759268195,4769.152143527603,-156.75683957217734
186556.8316148,216.92634601835425,-1131.3781764196344,964.2481981971544,37.028719123476094,12248.27091917469,811.3032864209194,5572.311813848753,3.961144281947327
186557.1483081,107.84580451196234,-1182.5778811423938,970.9374172218493,511.7605821587133,10357.289363386488,1053.0065684432923,5578.878031365835,292.07998500503027
186558.4315182,-144.3380365134742,-1532.3537614346785,737.2391190224554,547.3051625609241,6590.107833583235,1383.8747671555532,4467.433754278192,-345.14360898484756
186558.9684526,-202.57297307894396,15.668466144388276,937.4323012253228,445.89739160903946,2375.017737914779,1311.8585527935243,5094.081589044637,624.2954617193718
186559.5145429,-698.3536071909323,-1206.4632291445619,1017.315893276972,291.02954777570784,3016.0786207218516,1361.8617095351728,2954.9758947875607,426.12360635021923
186560.0377774,-851.2183952849931,-1481.337540531545,875.7361549158187,57.26683668218129,3427.8580337762614,1572.1366240866455,1445.678449470999,-574.9226777279237
186560.6316069,-713.1586633300167,-1264.8328626041266,735.2380546214331,122.07165962096337,3822.2696393296173,1565.7741144027086,965.7858348235422,-1179.2870180894388
186561.1477697,-436.6289841333314,-926.2451246740103,581.0330654050294,75.62164973357085,4293.299951421057,1344.8319693758112,1250.7429253442715,-1278.2873593588538
186561.6315232,65.63925060436486,-496.8974303757143,567.7355181853544,204.34255887765516,4757.608763666041,1256.827602309429,2094.9246458285943,-978.7148915650532
186562.2306936,120.43248850337659,-525.1627798501058,556.7263241728093,140.61797305247683,4655.618245389855,1230.764041895558,2911.6368210882847,-463.16067206701064
186562.9474082,140.56481973760341,-636.6591557605543,651.7940534610714,274.1434500176333,3716.0435665422738,1464.6224664027727,3213.0106937911332,-387.080738129589
186563.6637532,-54.3815529318382,-950.1255040618894,672.0683099982955,331.5711478983635,846.089298820465,963.8336885353585,2631.992633181788,-991.1123486620791
186564.1305338,-494.0900788281298,-1157.209774337768,597.8130581235438,339.7740558874873,-3064.4956804486264,1193.4139650033608,1211.9063318689387,-2206.730191886564
186564.8313208,-908.3965885604935,-1233.7194491699347,404.36881418801624,240.970957844856,-8373.125082737612,1176.1781007790814,-1176.8474709660368,-3857.294235778353
186565.2306015,-1058.599454392063,-769.3915223905351,132.309530799482,16.952861428331744,-13381.07744567065,888.6045490695686,-3788.060769067648,-5348.413783625818
186565.7470549,-948.6062017898735,-287.1485843635037,-124.23398986854988,-249.30996858065328,-16826.964727874027,449.3149520061081,-6144.930963007242,-6208.068388089887
186566.2657016,-575.6566425109627,197.70205716456462,-372.6778520149194,-536.6869794545266,-18570.831775996423,-124.88831777885162,-7716.504130256601,-6283.773284662246
186566.8633683,-268.2102964349183,158.2061155051424,-535.3727239609725,-899.7765851898315,-18926.08153667685,-575.7902323443855,-8554.266864048757,-5850.414957603729
186567.3301996,2.9178902329276752,-21.15794222091199,-649.3615380457463,-1156.737485998462,-18615.587655150353,-874.4334187191103,-8766.769204819317,-5153.882726851073
186567.963264,232.82096549858397,-214.2052654230638,-709.8460257450677,-1313.795181189923,-18086.857692444835,-1045.9061257267858,-8709.53941478685,-4417.924313367423
186568.5799401,357.42695241371484,-148.9050828501463,-688.1762262845739,-1345.4885267759905,-17291.809974437485,-1216.4609449377144,-8457.809269263838,-3660.163414041578
186569.0300029,432.0894603916982,-163.56656911951814,-648.4158842042416,-1316.4929541335662,-16283.240309992107,-1245.2042990976033,-8379.011302326926,-2881.600878912943
186569.663374,385.2758926471265,0.7388274137560984,-479.022148347521,-1041.4874493629518,-15129.197921695386,-1104.4747251519243,-7697.426071268374,-2281.314520269432
186570.1797218,279.8537213528075,43.040926713712,-477.3562252951506,-1118.4213088831455,-13749.880550139305,-888.1999218845469,-7498.634600141522,-1766.284949322692
186570.6477823,-26.856123141990224,-411.7140318931406,-502.88802482111396,-1335.4585549012045,-12394.215758114231,-910.3516123985455,-7669.690137145487,-1417.588906608687
186571.2942107,4.768589716441511,-439.5626535796373,-593.1231354317943,-1154.5223996396585,-11011.626983515343,-992.848479585522,-7608.415610067806,-1274.279958214786
186571.7295735,-57.675382184553655,-491.178012422401,-706.5200369264525,-1104.1004640227507,-9957.572246204903,-1182.7093724920046,-7481.6205744819745,-1219.0779374926692
186572.362929,-84.28128721820667,-312.52971960234686,-820.9421253141497,-985.6499385225229,-9396.043595540881,-1466.9587050912046,-7186.041313525562,-1120.9199322275394
186572.8626131,-33.122651828638936,17.78426780707059,-887.5334083242211,-854.8500669401686,-9296.20470671092,-1806.7706966638893,-6648.9928646691205,-862.1735509370035
186573.346109,16.17177075250902,260.44758672956596,-974.8594772316942,-872.2356903316409,-9336.654891779786,-2033.7776267710929,-6023.61057389197,-450.8438536595204
186573.983911,460.6599208572311,463.0779540880824,-1023.3101200307217,-665.661689187009,-9297.981792713752,-2347.181734573633,-5576.2431754306135,11.992005835120835
186574.5464839,289.302086812173,654.6563474461503,-993.6330278031278,-465.29024703602124,-9033.707080421344,-2383.901178895125,-5163.964920863853,503.680101273389
